DATE 2015:208:19:08:13 obsn   0 az   0 el 60 freq_MHz  1421.5000 Tsys 182.760 Tant -9.155 vlsr   -9.18 glat 40.751 glon 135.428 source at_stow
Fstart 1420.497 fstop 1422.503 spacing 0.009375 bw    2.400 fbw    2.000 MHz nfreq 256 nsam 1048576 npoint 214 integ     5 sigma    0.861 bsw 0
Spectrum 
 334.744  339.958  335.698  335.847  338.203  338.765  341.323  338.502  337.485  339.468  336.356  337.528  338.995  334.680  338.635  335.791  338.684  339.195  338.000  336.350  339.959  337.845  338.922  338.122  338.662  337.515  338.150  337.203  336.750  335.588  336.919  336.464  333.260  337.642  337.295  339.180  336.107  336.697  356.506  337.361  334.312  335.744  333.809  337.113  332.133  336.176  336.187  340.477  338.189  337.108  340.380  338.393  336.824  339.600  336.132  331.633  342.251  338.505  336.500  338.621  337.443  334.783  332.527  333.861  338.294  338.935  339.811  336.719  338.926  336.322  333.639  337.849  336.648  337.867  336.764  336.529  333.772  338.003  335.929  335.008  339.263  338.357  337.090  336.992  338.854  341.477  336.582  338.471  336.489  337.414  336.634  333.792  335.203  335.998  334.647  337.097  335.543  335.876  337.964  338.475  335.822  334.149  336.096  333.528  333.694  335.742  336.582  334.635  335.724  336.844  337.267  333.803  333.594  334.048  340.274  335.268  339.013  337.870  335.714  334.245  338.659  335.343  337.382  336.054  341.400  337.325  334.915  337.170  334.145  336.414  335.502  335.802  337.985  337.296  337.917  336.847  336.283  336.037  336.133  333.648  332.322  337.236  336.524  336.869  336.442  334.305  338.210  339.234  338.539  332.941  336.401  334.522  334.417  337.758  335.544  337.123  335.107  335.679  334.840  334.280  340.544  338.342  333.094  334.235  336.116  336.188  337.785  336.345  331.841  336.215  333.874  333.235  336.044  338.255  333.479  336.704  334.549  335.307  332.090  335.275  336.306  335.429  334.005  336.250  337.002  335.797  336.752  338.414  335.626  336.486  334.632  332.884  334.909  337.167  336.406  335.668  335.521  333.867  337.285  334.880  335.961  335.357  335.447  338.882  336.832  334.371  335.434  332.346  332.407  336.152  334.307  337.409  338.897  335.712 
DATE 2015:208:19:08:26 obsn   1 az   0 el 60 freq_MHz  1421.5000 Tsys 182.760 Tant -8.575 vlsr   -9.18 glat 40.762 glon 135.411 source at_stow
Fstart 1420.497 fstop 1422.503 spacing 0.009375 bw    2.400 fbw    2.000 MHz nfreq 256 nsam 1048576 npoint 214 integ     7 sigma    0.714 bsw 0
Spectrum 
 284.689  288.436  285.313  286.656  288.026  288.349  289.589  287.655  287.017  288.476  285.926  286.985  287.581  284.387  287.367  286.378  288.932  288.700  287.351  286.248  288.624  286.839  288.435  287.444  288.790  286.876  286.923  286.524  286.601  284.791  286.083  286.267  283.602  286.356  286.341  287.890  285.350  286.666  307.301  286.055  284.095  284.360  283.813  286.735  282.508  286.359  285.547  288.970  286.987  286.867  288.003  287.185  286.162  287.831  285.085  282.749  290.354  288.311  285.855  286.926  285.571  284.788  283.543  284.369  287.185  287.646  288.171  285.426  287.924  284.927  283.473  286.079  285.949  286.477  286.283  285.335  283.755  287.004  285.225  284.052  287.231  286.903  286.156  286.321  287.211  288.626  285.598  287.068  285.326  285.833  285.690  283.794  284.315  284.910  284.185  285.531  284.601  284.255  285.585  287.221  284.936  283.453  285.273  283.470  283.046  284.753  285.900  284.297  284.797  285.253  286.035  283.661  283.503  284.077  287.747  284.608  286.973  286.686  284.877  283.939  286.407  284.256  286.112  285.936  289.644  286.823  284.460  285.740  283.626  285.459  284.184  284.848  287.048  286.240  286.246  285.694  285.772  284.988  285.472  283.964  282.507  286.489  284.720  285.542  285.650  284.162  286.514  287.004  287.056  283.264  285.320  283.623  284.463  286.499  284.479  285.901  284.524  285.079  284.240  283.678  288.488  286.261  282.776  283.895  284.872  285.277  286.354  285.409  282.665  285.407  282.719  283.229  284.909  286.281  283.000  285.906  283.830  285.062  282.142  284.160  285.367  283.605  283.081  285.550  285.514  284.685  285.800  286.920  284.800  285.282  283.690  283.262  284.081  285.550  285.204  284.772  284.845  283.270  286.903  284.917  285.613  284.477  284.973  286.462  285.900  283.579  283.981  282.927  281.902  284.634  284.444  286.116  286.475  285.645 
DATE 2015:208:19:08:39 obsn   2 az   0 el 60 freq_MHz  1421.5000 Tsys 182.760 Tant -8.363 vlsr   -9.18 glat 40.773 glon 135.395 source at_stow
Fstart 1420.497 fstop 1422.503 spacing 0.009375 bw    2.400 fbw    2.000 MHz nfreq 256 nsam 1048576 npoint 214 integ     9 sigma    0.623 bsw 0
Spectrum 
 258.400  261.587  259.130  260.475  261.184  261.751  262.440  261.042  261.233  261.423  259.702  259.968  261.597  258.644  261.134  259.472  262.841  262.032  261.174  260.494  261.481  260.434  262.137  260.960  262.874  260.183  259.994  260.245  260.222  258.356  259.091  259.855  257.988  259.780  259.588  260.836  258.702  260.085  281.128  259.322  258.678  258.081  257.678  259.428  257.104  259.720  259.589  261.849  260.226  259.884  260.999  259.853  259.816  260.844  258.812  256.699  263.749  261.816  259.495  259.754  258.905  257.923  256.915  258.179  260.296  260.312  261.855  258.970  261.121  258.835  257.186  259.432  259.033  259.950  259.772  259.328  257.563  259.912  258.963  258.064  260.298  260.134  259.730  260.428  260.984  261.291  259.006  260.573  258.812  258.846  258.923  257.735  257.910  257.871  257.482  258.599  257.874  257.920  258.889  259.562  258.098  257.282  258.882  256.888  256.625  258.320  258.989  257.750  258.036  258.160  259.015  257.356  257.339  257.553  259.909  258.173  259.305  259.416  258.448  257.348  259.150  257.786  259.629  259.130  262.510  260.322  258.000  258.611  257.354  259.001  257.544  258.185  259.848  259.364  259.709  259.065  258.593  258.703  258.622  257.899  256.601  260.015  258.236  258.566  258.463  257.545  259.376  259.770  259.957  257.168  258.442  257.153  258.019  258.905  257.848  258.895  257.447  257.779  257.782  257.315  260.889  258.849  256.840  257.016  258.434  259.396  259.371  258.421  256.791  258.439  256.479  257.027  258.066  259.654  256.894  258.492  257.214  258.067  255.863  257.962  259.071  257.354  256.821  258.563  258.465  258.257  258.882  259.647  258.212  258.406  257.115  256.839  257.652  258.895  258.311  257.735  257.769  257.268  259.956  257.739  258.406  257.689  257.734  259.479  258.950  257.041  257.381  256.148  255.773  258.152  257.848  258.813  259.071  259.343 
DATE 2015:208:19:08:52 obsn   3 az   0 el 60 freq_MHz  1421.5000 Tsys 182.760 Tant -9.050 vlsr   -9.18 glat 40.783 glon 135.379 source at_stow
Fstart 1420.497 fstop 1422.503 spacing 0.009375 bw    2.400 fbw    2.000 MHz nfreq 256 nsam 1048576 npoint 214 integ    11 sigma    0.560 bsw 0
Spectrum 
 242.401  244.743  243.480  244.696  244.709  245.298  246.299  244.656  245.037  245.232  243.608  243.454  244.553  242.429  244.552  243.649  246.907  245.624  244.671  244.179  245.129  244.097  245.523  244.671  246.916  244.087  244.158  243.920  243.896  242.201  242.953  243.612  242.300  243.463  243.132  243.700  242.193  243.765  265.307  243.057  242.332  241.824  241.719  243.034  240.817  243.124  243.449  245.029  243.871  243.100  244.450  243.735  243.350  244.140  242.362  240.396  247.431  245.733  242.886  243.128  242.838  241.880  240.648  241.904  243.713  244.083  245.477  242.682  244.783  242.393  241.247  242.851  242.278  243.430  243.680  242.907  241.549  243.136  242.216  242.027  243.609  243.578  243.173  244.097  244.200  244.286  242.782  244.151  242.753  242.451  242.574  241.756  241.538  242.049  241.266  241.959  241.929  241.492  242.534  242.788  241.575  241.003  242.211  240.694  240.143  241.695  242.512  241.066  241.433  241.807  242.450  241.162  240.657  241.337  243.367  241.629  242.675  243.312  242.343  241.279  242.670  241.556  243.183  242.786  245.259  243.737  242.066  242.197  240.823  242.831  241.519  242.379  242.892  242.763  243.302  242.615  242.477  242.208  242.355  241.163  240.599  243.025  241.963  241.820  242.136  241.188  243.169  242.957  243.163  241.164  242.158  241.008  241.990  242.659  241.388  242.296  241.215  241.722  241.302  241.319  243.974  242.466  240.960  241.110  242.412  242.939  242.922  241.804  240.832  242.211  240.524  240.613  241.462  243.360  241.006  241.859  240.924  241.171  239.643  241.344  242.430  241.232  240.310  241.789  241.902  241.940  242.598  243.068  241.714  242.475  240.950  240.329  241.458  242.750  241.727  241.103  241.522  240.878  243.386  241.337  242.260  241.718  241.495  243.046  242.201  240.777  240.627  239.772  240.129  241.380  240.827  242.244  242.534  242.853 
DATE 2015:208:19:09:06 obsn   4 az   0 el 60 freq_MHz  1421.5000 Tsys 182.760 Tant -8.417 vlsr   -9.18 glat 40.793 glon 135.363 source at_stow
Fstart 1420.497 fstop 1422.503 spacing 0.009375 bw    2.400 fbw    2.000 MHz nfreq 256 nsam 1048576 npoint 214 integ    14 sigma    0.513 bsw 0
Spectrum 
 231.584  233.775  232.330  233.329  233.532  234.044  235.094  233.346  234.150  234.466  232.333  232.527  233.591  231.456  233.691  232.921  236.185  234.345  233.668  233.101  234.306  233.219  234.243  233.562  235.648  232.820  232.864  232.981  233.018  231.348  232.334  232.559  231.399  232.204  231.739  232.421  231.173  232.653  254.150  231.952  231.346  230.784  230.789  232.073  229.800  232.018  232.400  233.531  232.625  232.102  233.115  232.600  232.196  233.025  231.204  229.554  235.752  234.551  232.124  232.251  231.605  230.553  229.645  230.886  232.390  232.775  234.213  231.956  233.364  231.562  230.671  231.821  231.218  232.222  232.472  231.863  230.820  231.958  231.256  230.953  232.692  232.158  232.063  232.900  232.883  233.108  231.620  232.986  231.739  231.412  231.824  230.611  230.556  231.098  230.230  230.913  230.758  230.390  231.308  231.732  230.477  229.965  230.832  229.743  229.395  230.591  231.226  230.117  230.223  231.031  231.090  229.781  229.772  229.978  231.994  230.555  231.017  232.283  231.381  230.312  231.304  230.633  232.598  231.344  233.579  232.427  230.575  231.078  229.756  231.736  230.938  230.998  231.495  231.253  232.129  231.686  231.382  231.363  231.340  230.294  229.451  231.560  230.932  231.055  231.231  230.115  231.873  231.581  231.749  229.879  230.757  230.233  230.917  231.304  230.575  230.927  230.284  230.541  230.081  230.744  232.654  231.119  230.513  229.997  231.287  231.598  231.806  230.471  229.755  230.935  229.660  229.762  230.306  231.621  229.829  230.479  229.792  230.017  228.763  230.533  230.965  230.246  229.186  230.800  230.465  230.873  231.670  231.647  230.543  231.458  229.758  229.522  230.237  231.521  230.716  230.113  230.254  229.995  232.244  230.270  230.977  230.594  230.524  231.826  231.229  229.902  229.255  228.748  229.265  229.923  229.523  230.705  231.150  231.543 
DATE 2015:208:19:09:19 obsn   5 az   0 el 60 freq_MHz  1421.5000 Tsys 182.760 Tant  8.539 vlsr   -9.17 glat 40.804 glon 135.347 source at_stow
Fstart 1420.497 fstop 1422.503 spacing 0.009375 bw    2.400 fbw    2.000 MHz nfreq 256 nsam 1048576 npoint 214 integ    16 sigma    0.476 bsw 0
Spectrum 
 224.004  225.794  224.693  225.551  225.417  226.907  227.242  226.019  226.380  226.410  224.746  224.836  225.840  224.022  226.320  225.368  228.269  226.605  225.758  225.260  226.272  225.427  226.339  225.992  227.717  224.881  225.332  225.339  225.089  223.618  224.432  224.754  223.434  224.082  224.049  224.397  223.752  224.878  246.508  224.100  223.631  222.652  222.998  224.396  222.325  224.593  224.968  225.726  225.021  224.537  224.909  224.623  224.317  225.161  223.454  222.232  227.887  227.106  224.252  224.551  224.012  222.895  222.273  223.202  224.541  224.873  226.446  224.314  225.215  223.466  223.090  223.721  223.162  224.305  224.626  223.863  223.407  224.076  223.527  223.100  224.928  224.118  224.235  225.342  224.643  225.229  223.777  225.332  223.966  223.544  224.076  223.093  222.993  223.367  222.329  223.564  222.938  222.813  223.551  223.864  222.831  222.434  223.349  222.212  221.869  222.687  223.170  222.393  222.573  223.309  223.404  222.114  222.233  222.002  224.057  222.796  223.101  224.145  223.490  222.562  223.202  222.992  224.709  223.624  225.497  224.367  222.830  223.166  222.025  223.817  223.340  223.382  223.689  223.527  224.662  223.670  223.635  223.670  223.319  222.608  221.981  223.428  223.180  223.321  223.398  222.304  224.009  223.544  223.722  222.067  222.960  222.586  222.957  223.312  222.670  223.274  222.597  223.004  222.475  223.205  224.848  222.995  222.749  222.383  223.507  223.888  224.050  222.828  222.064  223.096  222.122  221.965  222.705  223.731  222.072  222.777  221.937  222.587  221.044  222.562  223.127  222.747  221.978  223.269  222.437  223.148  223.595  223.514  222.693  223.573  221.683  221.560  222.493  223.752  222.966  222.759  222.440  221.915  224.442  222.521  223.683  222.911  223.134  223.997  223.559  222.148  221.312  221.224  221.715  222.119  221.761  222.639  223.286  224.057 
DATE 2015:208:19:09:32 obsn   6 az   0 el 60 freq_MHz  1421.5000 Tsys 182.760 Tant 275.954 vlsr   -9.17 glat 40.815 glon 135.330 source at_stow
Fstart 1420.497 fstop 1422.503 spacing 0.009375 bw    2.400 fbw    2.000 MHz nfreq 256 nsam 1048576 npoint 214 integ    18 sigma    0.446 bsw 0
Spectrum 
 251.110  253.098  251.078  251.859  252.928  254.162  253.965  252.904  253.634  253.838  252.919  252.563  252.756  251.757  253.985  252.915  254.994  253.892  252.538  252.263  253.163  251.717  253.198  253.005  254.627  252.239  252.984  252.550  252.243  250.462  251.469  252.025  250.402  250.795  251.019  251.390  251.459  251.453  273.893  250.892  250.608  249.989  249.841  251.220  250.257  252.032  251.358  252.164  251.579  251.094  251.810  252.670  251.667  252.138  251.175  250.055  254.305  253.981  251.766  251.410  251.418  250.214  249.829  249.804  251.172  252.359  253.165  251.301  252.590  251.362  250.684  251.734  250.401  251.774  252.058  250.935  249.975  251.757  250.740  250.323  252.026  251.939  251.306  251.933  251.088  253.022  251.561  251.952  251.815  251.308  251.268  249.954  250.231  251.002  249.137  251.302  250.459  250.234  251.040  250.455  250.700  249.429  249.952  249.196  248.951  250.204  249.859  248.958  249.780  250.615  250.985  249.214  248.996  249.231  251.254  249.548  249.826  250.834  250.408  249.574  250.684  250.759  252.671  251.304  252.244  251.425  250.760  250.492  249.136  250.971  251.075  250.506  250.186  250.525  252.228  250.881  250.721  251.200  250.506  250.333  249.814  250.908  249.911  250.807  250.316  249.789  251.369  251.469  250.806  249.313  250.078  249.948  250.156  251.073  250.402  250.128  250.048  250.235  249.629  250.736  251.692  250.793  250.337  249.765  250.594  251.422  251.700  250.818  249.793  250.197  249.346  250.241  250.166  251.162  249.341  249.979  248.672  249.490  248.365  250.350  250.511  249.730  249.106  250.246  249.352  250.196  251.302  250.944  249.514  250.911  248.735  249.325  249.727  251.317  250.331  249.848  249.723  249.047  252.222  249.661  250.983  250.323  250.896  251.181  250.836  249.166  249.077  248.365  249.242  249.553  248.449  249.501  250.779  251.542 
DATE 2015:208:19:09:45 obsn   7 az   0 el 60 freq_MHz  1421.5000 Tsys 182.760 Tant 279.739 vlsr   -9.17 glat 40.825 glon 135.314 source at_stow
Fstart 1420.497 fstop 1422.503 spacing 0.009375 bw    2.400 fbw    2.000 MHz nfreq 256 nsam 1048576 npoint 214 integ    20 sigma    0.421 bsw 0
Spectrum 
 273.278  275.579  273.111  274.689  274.921  276.203  276.344  275.260  276.321  276.125  276.014  274.978  275.699  274.313  276.455  275.519  277.416  275.984  275.428  275.980  275.807  273.919  275.701  275.339  276.829  274.585  275.916  275.255  274.962  273.040  274.406  274.663  273.128  273.115  273.709  273.862  274.140  274.763  296.208  273.249  272.830  271.933  271.899  273.508  272.395  274.924  273.385  274.808  273.805  273.313  274.403  275.569  274.831  274.789  274.253  272.108  276.748  276.587  274.272  274.218  274.172  272.743  272.379  272.644  273.613  275.206  275.308  274.164  275.323  274.641  273.612  273.975  273.380  274.717  274.471  273.418  272.476  274.414  273.171  272.914  274.531  274.073  273.182  274.407  273.601  274.921  273.718  273.463  274.066  274.441  273.981  272.948  272.940  273.123  271.940  273.401  272.477  272.409  273.639  273.276  273.308  271.763  273.483  272.126  271.671  272.870  272.587  271.470  272.776  273.138  273.038  272.338  271.932  271.767  274.519  272.450  272.758  272.922  273.540  272.249  273.599  273.767  275.300  274.345  274.513  274.181  273.114  273.339  271.708  273.880  273.814  272.778  272.684  273.250  274.317  273.867  273.473  274.284  273.769  273.279  272.407  273.854  272.747  273.136  272.678  272.623  273.935  274.201  272.994  272.559  273.068  272.645  273.015  273.928  272.735  272.465  272.837  273.397  272.078  272.803  274.017  273.503  273.480  271.767  273.594  273.747  273.942  273.423  272.681  273.259  272.107  272.356  273.225  273.891  272.084  272.362  271.323  272.008  271.273  272.891  273.379  272.405  271.585  272.725  272.521  272.779  273.588  273.185  272.703  273.454  271.147  272.485  272.612  273.620  273.278  271.675  272.216  271.715  275.399  272.608  274.035  273.445  273.534  273.781  273.266  272.192  272.310  271.234  271.847  271.655  271.119  271.774  273.367  274.217 
DATE 2015:208:19:09:58 obsn   8 az   0 el 60 freq_MHz  1421.5000 Tsys 182.760 Tant 288.494 vlsr   -9.17 glat 40.836 glon 135.298 source at_stow
Fstart 1420.497 fstop 1422.503 spacing 0.009375 bw    2.400 fbw    2.000 MHz nfreq 256 nsam 1048576 npoint 214 integ    22 sigma    0.400 bsw 0
Spectrum 
 292.629  294.109  292.113  293.895  294.373  295.781  295.385  294.170  295.681  295.576  294.815  294.454  295.497  294.231  296.083  294.550  296.358  294.910  294.336  294.808  295.201  292.758  295.003  293.905  296.071  293.383  294.967  294.240  294.367  292.408  293.091  293.285  292.155  291.797  292.537  292.632  293.429  293.812  315.689  292.163  291.339  291.238  290.825  292.593  291.782  294.450  292.170  293.841  292.488  292.093  293.637  294.385  293.515  293.677  293.417  290.974  296.314  295.467  293.449  293.392  293.537  292.216  291.724  291.413  292.356  294.116  294.370  293.398  294.413  293.500  293.132  293.410  292.674  293.937  293.696  293.529  291.572  293.824  292.159  292.336  293.044  293.300  292.148  293.332  292.535  293.638  292.930  292.765  293.623  293.782  293.047  292.123  292.173  292.193  290.784  292.486  291.832  291.650  292.847  292.061  292.112  290.495  292.128  291.298  290.750  291.718  291.790  290.755  291.788  292.797  292.225  291.757  290.983  290.639  293.066  291.307  292.431  292.241  293.436  291.572  293.063  292.744  294.412  294.174  293.704  293.316  292.488  292.752  290.679  292.980  292.953  291.830  292.049  292.210  293.250  292.802  293.039  293.775  293.288  292.801  291.463  293.448  292.163  292.017  291.973  292.293  293.311  293.545  292.566  292.169  293.131  292.032  292.945  293.292  291.950  292.339  291.919  292.512  291.603  291.928  292.651  292.565  292.352  291.450  292.894  293.214  293.354  292.456  291.773  292.224  291.700  291.642  292.559  293.198  291.633  292.056  291.292  291.305  290.537  292.481  292.065  291.435  290.918  291.816  291.380  292.089  293.004  292.151  291.756  292.319  290.376  291.893  291.671  293.310  292.647  290.971  291.621  291.428  294.620  291.934  293.844  292.921  293.122  293.245  292.786  291.583  291.555  290.435  291.848  291.190  290.641  291.198  293.042  293.995 
DATE 2015:208:19:10:12 obsn   9 az   0 el 60 freq_MHz  1421.5000 Tsys 182.760 Tant 286.423 vlsr   -9.17 glat 40.846 glon 135.282 source at_stow
Fstart 1420.497 fstop 1422.503 spacing 0.009375 bw    2.400 fbw    2.000 MHz nfreq 256 nsam 1048576 npoint 214 integ    24 sigma    0.382 bsw 0
Spectrum 
 308.432  309.045  307.779  309.354  310.221  311.715  311.303  310.274  311.627  311.590  310.080  310.632  311.082  309.722  311.928  309.923  311.800  310.766  310.211  310.738  310.869  308.866  310.459  309.849  311.292  308.917  310.242  310.001  309.547  308.526  308.793  309.012  307.787  307.436  307.888  307.640  309.368  309.009  331.497  307.741  307.102  306.608  306.255  307.996  307.804  310.273  308.060  309.965  308.234  307.822  309.118  309.639  308.790  309.055  309.410  306.676  312.475  311.361  309.265  309.696  309.319  308.253  307.341  307.018  308.332  310.308  310.373  309.282  310.046  309.131  309.052  309.009  308.460  309.380  309.157  309.439  307.361  309.581  308.118  308.594  309.020  309.133  308.152  309.515  308.579  309.433  308.635  308.603  309.235  309.329  309.171  307.702  307.958  308.229  306.720  308.373  307.422  307.684  308.630  308.157  307.798  306.670  308.195  307.387  306.326  307.157  307.360  306.216  308.006  308.433  307.923  307.365  306.494  306.302  308.585  307.190  308.372  307.897  308.615  307.880  308.784  308.650  309.824  310.107  308.995  309.330  308.300  308.210  306.450  308.781  308.690  308.090  307.960  307.754  308.515  308.378  308.452  309.206  309.031  308.115  307.783  309.116  307.624  307.690  308.193  308.589  309.406  309.209  308.284  308.455  308.214  307.466  309.042  309.444  307.953  308.142  308.090  308.434  307.366  307.599  308.399  308.488  307.949  307.667  309.044  308.921  309.262  308.575  307.723  307.888  307.554  307.226  308.549  308.746  307.672  308.017  307.392  306.909  306.327  308.009  307.773  307.504  306.781  307.708  306.869  307.758  308.896  307.935  307.614  308.261  306.759  307.997  307.692  309.214  308.412  307.006  308.081  307.236  310.677  308.009  310.083  308.629  308.894  308.863  308.632  307.099  307.524  306.645  307.860  306.787  306.079  306.877  309.084  310.009 
DATE 2015:208:19:10:25 obsn  10 az   0 el 60 freq_MHz  1421.5000 Tsys 182.760 Tant -1.266 vlsr   -9.16 glat 40.856 glon 135.265 source at_stow
Fstart 1420.497 fstop 1422.503 spacing 0.009375 bw    2.400 fbw    2.000 MHz nfreq 256 nsam 1048576 npoint 214 integ    27 sigma    0.366 bsw 0
Spectrum 
 314.353  315.338  313.778  315.663  316.473  317.997  317.256  316.529  317.661  317.622  316.574  316.632  317.250  316.041  318.648  316.162  317.750  317.111  316.572  317.121  317.412  315.693  316.493  316.394  317.645  315.434  316.297  316.342  315.614  314.789  314.692  315.332  313.937  313.726  313.801  313.590  315.486  315.048  337.310  313.925  313.301  313.240  312.273  313.885  313.738  316.423  314.175  316.114  314.497  314.175  315.450  315.695  315.174  315.089  314.924  312.944  318.536  317.544  315.457  315.761  315.528  314.383  313.409  313.207  314.681  316.316  316.882  315.279  316.019  315.328  315.457  314.910  314.611  315.492  315.459  315.857  313.605  315.829  314.413  314.956  315.197  315.508  315.048  316.267  315.011  315.888  315.127  314.732  315.609  315.014  315.649  313.920  314.069  314.173  312.944  314.433  313.507  313.806  314.791  314.488  313.892  312.571  314.360  313.755  312.451  313.325  313.712  312.820  313.877  314.985  314.042  313.838  313.023  312.264  314.862  313.313  314.717  314.141  314.476  314.105  315.194  314.797  315.422  315.606  315.209  315.568  314.387  314.346  312.551  314.624  314.843  314.298  313.919  313.611  314.979  314.267  314.779  315.628  315.142  314.362  314.251  315.040  313.741  314.234  314.170  314.737  315.452  315.644  314.432  314.918  314.801  313.617  314.955  315.340  313.734  314.321  314.396  314.861  313.522  313.807  314.935  314.370  314.356  314.305  314.826  315.204  315.448  314.362  314.059  314.453  313.648  313.243  314.742  314.960  313.854  314.282  313.678  313.150  312.004  313.952  314.068  313.232  313.156  313.897  312.950  314.076  315.022  314.001  313.594  314.409  312.874  314.212  314.143  315.787  314.389  313.360  314.337  313.370  316.712  314.186  315.796  314.981  315.289  315.131  314.935  313.141  313.856  312.801  314.193  312.720  312.420  312.689  314.952  316.837 
DATE 2015:208:19:10:38 obsn  11 az   0 el 60 freq_MHz  1421.5000 Tsys 182.760 Tant -1.537 vlsr   -9.16 glat 40.868 glon 135.248 source at_stow
Fstart 1420.497 fstop 1422.503 spacing 0.009375 bw    2.400 fbw    2.000 MHz nfreq 256 nsam 1048576 npoint 214 integ    29 sigma    0.352 bsw 0
Spectrum 
 304.473  305.286  304.014  305.715  306.492  307.926  307.279  306.534  307.549  307.496  306.504  306.632  307.268  305.966  308.401  306.169  307.921  307.130  306.609  307.109  307.252  305.828  306.594  306.301  307.930  305.491  306.337  306.367  305.703  304.507  304.561  305.088  303.851  303.546  303.712  303.594  305.334  304.987  327.204  303.869  303.359  303.070  302.451  303.709  303.677  306.189  304.278  305.932  304.456  304.020  305.359  305.257  305.030  305.008  304.892  303.073  308.465  307.559  305.511  305.608  305.374  304.395  303.477  303.239  304.664  306.196  306.695  305.232  305.817  305.180  305.322  304.768  304.594  305.290  305.129  305.750  303.737  305.533  304.465  304.791  305.041  305.231  304.821  306.203  304.743  305.654  305.098  304.639  305.558  304.967  305.371  303.706  303.724  304.030  302.828  304.180  303.527  303.587  304.696  304.369  303.794  302.484  304.084  303.498  302.315  303.071  303.757  302.764  303.685  304.745  303.984  303.686  302.874  302.238  304.730  303.216  304.532  304.094  304.410  303.942  305.072  304.763  305.298  305.432  304.811  305.312  304.272  304.270  302.360  304.537  304.606  304.038  303.880  303.482  304.785  304.123  304.492  305.369  304.907  304.333  304.127  304.810  303.659  304.257  303.979  304.479  305.175  305.535  304.074  304.539  304.633  303.551  304.645  304.836  303.456  304.049  304.284  304.533  303.307  303.770  304.655  304.226  304.389  304.131  304.531  304.893  305.056  304.017  303.868  304.160  303.461  303.183  304.458  304.763  303.629  304.133  303.510  302.920  301.847  303.590  303.914  303.112  303.056  303.630  302.934  303.735  304.709  303.599  303.346  304.229  302.737  303.804  304.010  305.412  304.204  303.059  303.966  303.081  306.419  303.955  305.447  304.682  305.138  304.834  304.668  303.053  303.665  302.594  303.953  302.684  302.254  302.366  304.591  306.454 
DATE 2015:208:19:10:51 obsn  12 az   0 el 60 freq_MHz  1421.5000 Tsys 182.760 Tant -1.792 vlsr   -9.16 glat 40.878 glon 135.232 source at_stow
Fstart 1420.497 fstop 1422.503 spacing 0.009375 bw    2.400 fbw    2.000 MHz nfreq 256 nsam 1048576 npoint 214 integ    31 sigma    0.339 bsw 0
Spectrum 
 295.796  296.712  295.529  297.154  297.828  299.159  298.723  297.818  298.844  298.742  297.730  297.962  298.558  297.282  299.630  297.395  299.615  298.649  297.892  298.531  298.622  297.355  298.051  297.872  299.670  296.806  297.650  297.645  297.140  295.890  295.941  296.513  295.216  294.984  295.018  294.832  296.566  296.466  318.542  295.122  294.808  294.393  293.826  294.865  294.972  297.490  295.630  297.090  295.509  295.163  296.473  296.500  296.424  296.413  296.220  294.432  299.731  298.955  296.698  296.831  296.573  295.606  294.843  294.669  296.064  297.310  298.007  296.388  296.983  296.393  296.516  296.115  295.838  296.603  296.409  297.041  295.061  296.904  295.817  296.094  296.372  296.483  296.225  297.567  295.891  296.826  296.319  295.966  296.847  296.392  296.553  295.075  295.071  295.306  294.144  295.406  294.849  294.818  295.907  295.607  295.244  294.016  295.344  294.753  293.645  294.315  295.133  294.151  294.852  295.943  295.312  294.932  294.203  293.535  295.825  294.495  295.712  295.223  295.721  295.093  296.173  296.060  296.664  296.680  296.032  296.526  295.389  295.678  293.660  295.931  295.972  295.261  295.164  294.988  295.943  295.433  295.681  296.722  296.154  295.615  295.438  295.966  294.951  295.427  295.290  295.698  296.211  296.595  295.260  295.845  295.859  295.024  295.840  295.940  294.764  295.273  295.466  295.709  294.594  294.981  295.927  295.519  295.611  295.391  295.714  296.032  295.955  295.384  295.113  295.392  294.863  294.314  295.615  295.954  294.945  295.151  294.755  294.200  293.277  294.652  295.239  294.280  294.305  294.899  294.099  294.913  295.663  294.830  294.758  295.478  293.951  294.964  295.320  296.463  295.329  294.261  295.099  294.286  297.401  295.164  296.647  295.767  296.304  295.860  295.726  294.289  294.838  293.784  295.188  293.921  293.360  293.506  295.569  297.442 
DATE 2015:208:19:11:04 obsn  13 az   0 el 60 freq_MHz  1421.5000 Tsys 182.760 Tant -1.609 vlsr   -9.16 glat 40.888 glon 135.216 source at_stow
Fstart 1420.497 fstop 1422.503 spacing 0.009375 bw    2.400 fbw    2.000 MHz nfreq 256 nsam 1048576 npoint 214 integ    33 sigma    0.328 bsw 0
Spectrum 
 288.299  289.225  288.084  289.617  290.436  291.695  291.066  290.403  291.347  291.206  290.156  290.352  290.909  289.679  292.016  290.027  292.472  291.191  290.507  291.075  290.983  289.935  290.629  290.486  292.554  289.291  290.214  290.134  289.682  288.417  288.359  288.959  287.834  287.503  287.457  287.246  288.896  289.033  311.142  287.524  287.324  286.921  286.459  287.447  287.600  289.806  287.991  289.480  287.916  287.556  288.879  288.945  288.779  288.791  288.744  287.146  292.103  291.609  289.292  289.188  289.008  288.089  287.217  287.201  288.550  289.742  290.613  288.882  289.190  288.671  288.999  288.606  288.389  288.996  288.796  289.254  287.491  289.332  288.385  288.454  288.718  288.889  288.749  289.912  288.297  289.417  288.782  288.314  288.991  288.857  288.951  287.387  287.593  287.894  286.874  287.971  287.198  287.261  288.386  288.010  287.729  286.457  287.936  287.153  286.171  286.689  287.552  286.515  287.265  288.366  287.785  287.391  286.690  286.075  288.288  286.753  288.162  287.620  288.028  287.502  288.393  288.321  288.971  289.021  288.529  288.908  287.714  288.163  286.134  288.253  288.393  287.579  287.664  287.474  288.321  287.920  288.169  289.043  288.431  288.068  287.946  288.275  287.432  287.957  287.594  288.042  288.462  288.823  287.669  288.139  288.327  287.468  288.184  288.256  287.183  287.631  287.872  288.010  287.085  287.620  288.154  287.870  288.192  287.707  288.076  288.368  288.281  287.756  287.477  287.612  287.285  286.740  287.817  288.269  287.262  287.385  287.022  286.438  285.817  287.075  287.766  286.710  286.689  287.311  286.550  287.405  288.029  287.182  287.084  287.829  286.370  287.311  287.727  288.829  287.741  286.572  287.451  286.736  289.769  287.546  289.080  288.059  288.769  288.392  288.066  286.699  287.097  286.216  287.641  286.234  285.780  285.788  287.786  289.631 
DATE 2015:208:19:11:18 obsn  14 az   0 el 60 freq_MHz  1421.5000 Tsys 182.760 Tant -1.673 vlsr   -9.16 glat 40.898 glon 135.200 source at_stow
Fstart 1420.497 fstop 1422.503 spacing 0.009375 bw    2.400 fbw    2.000 MHz nfreq 256 nsam 1048576 npoint 214 integ    35 sigma    0.317 bsw 0
Spectrum 
 281.841  282.555  281.694  283.166  283.947  284.905  284.441  283.819  284.784  284.378  283.517  283.568  284.313  283.048  285.359  283.573  285.991  284.628  284.002  284.395  284.241  283.435  284.145  283.749  286.193  282.745  283.528  283.366  282.951  281.982  281.804  282.324  281.335  280.895  280.871  280.769  282.126  282.505  304.494  280.778  280.833  280.333  279.850  280.916  281.148  283.082  281.431  282.870  281.316  280.866  282.109  282.396  282.192  282.156  282.316  280.544  285.391  285.240  282.680  282.505  282.266  281.372  280.657  280.658  281.779  283.068  283.832  282.281  282.497  281.974  282.499  282.048  281.718  282.454  282.086  282.556  281.007  282.727  281.741  281.825  282.175  282.116  282.160  283.259  281.774  282.748  282.266  281.796  282.299  282.203  282.267  280.731  280.933  281.287  280.225  281.361  280.635  280.730  281.694  281.436  281.252  279.823  281.375  280.524  279.534  279.937  280.855  279.905  280.744  281.669  281.121  280.740  280.097  279.451  281.550  280.194  281.464  280.885  281.370  280.922  281.557  281.660  282.294  282.310  281.820  282.199  281.090  281.405  279.527  281.587  281.774  280.878  280.912  280.825  281.799  281.185  281.576  282.326  281.710  281.362  281.215  281.625  280.800  281.432  280.907  281.305  281.687  282.097  281.089  281.502  281.517  280.740  281.478  281.654  280.505  281.011  281.174  281.298  280.287  280.922  281.472  281.195  281.434  281.013  281.414  281.613  281.546  281.053  280.884  281.018  280.558  280.290  281.069  281.506  280.580  280.711  280.324  279.822  279.255  280.470  281.023  280.074  279.997  280.704  279.967  280.913  281.333  280.337  280.493  281.054  279.714  280.676  281.073  282.095  280.936  280.120  280.818  280.094  283.032  280.834  282.280  281.428  282.249  281.835  281.331  279.937  280.300  279.560  280.980  279.671  279.197  279.060  281.103  282.715 
DATE 2015:208:19:11:31 obsn  15 az   0 el 60 freq_MHz  1421.5000 Tsys 182.760 Tant -3.264 vlsr   -9.15 glat 40.909 glon 135.183 source at_stow
Fstart 1420.497 fstop 1422.503 spacing 0.009375 bw    2.400 fbw    2.000 MHz nfreq 256 nsam 1048576 npoint 214 integ    38 sigma    0.308 bsw 0
Spectrum 
 276.012  276.744  275.984  277.393  278.104  278.871  278.557  277.966  278.887  278.576  277.709  277.755  278.381  277.311  279.375  277.716  280.367  278.773  278.211  278.561  278.391  277.688  278.423  277.878  280.663  276.854  277.557  277.518  277.069  276.156  275.955  276.569  275.499  275.078  275.039  274.882  276.349  276.651  298.578  274.998  274.926  274.512  274.167  275.116  275.384  277.322  275.683  276.991  275.624  275.095  276.301  276.602  276.405  276.404  276.384  274.653  279.429  279.395  276.867  276.634  276.297  275.507  274.780  275.028  275.888  276.974  278.017  276.374  276.689  276.134  276.569  276.200  275.890  276.519  276.166  276.627  275.197  276.841  275.953  275.965  276.337  276.250  276.219  277.289  275.877  276.704  276.267  276.049  276.344  276.213  276.319  274.909  275.155  275.393  274.560  275.549  274.758  274.733  275.743  275.517  275.423  274.077  275.405  274.593  273.690  274.165  275.040  274.028  274.927  275.741  275.176  274.817  274.171  273.548  275.634  274.364  275.350  275.015  275.513  275.128  275.612  275.727  276.370  276.302  275.879  276.269  275.265  275.525  273.756  275.597  275.941  275.183  275.007  274.915  275.802  275.326  275.628  276.535  275.804  275.530  275.427  275.602  274.927  275.514  275.045  275.307  275.669  276.332  275.165  275.529  275.591  274.905  275.542  275.701  274.640  275.211  275.241  275.376  274.275  275.025  275.564  275.364  275.598  275.180  275.599  275.741  275.670  275.013  275.048  275.149  274.742  274.358  275.222  275.487  274.683  274.793  274.363  273.829  273.377  274.655  275.070  274.155  274.103  274.709  274.088  274.917  275.480  274.320  274.508  275.152  273.882  274.703  275.148  275.939  274.957  274.149  274.937  274.193  276.980  274.870  276.327  275.345  276.292  275.842  275.298  273.993  274.380  273.792  274.984  273.770  273.224  273.338  275.169  276.694 
DATE 2015:208:19:11:44 obsn  16 az   0 el 60 freq_MHz  1421.5000 Tsys 182.760 Tant -4.873 vlsr   -9.15 glat 40.920 glon 135.166 source at_stow
Fstart 1420.497 fstop 1422.503 spacing 0.009375 bw    2.400 fbw    2.000 MHz nfreq 256 nsam 1048576 npoint 214 integ    40 sigma    0.299 bsw 0
Spectrum 
 270.724  271.509  270.828  272.179  272.686  273.457  273.196  272.830  273.528  273.346  272.361  272.422  272.989  271.906  274.003  272.381  275.250  273.586  272.911  273.210  273.011  272.360  273.200  272.563  275.396  271.587  272.231  272.273  271.600  270.802  270.611  271.208  270.147  269.831  269.683  269.607  270.915  271.422  293.227  269.661  269.629  269.173  268.838  269.724  270.121  271.908  270.375  271.450  270.191  269.760  270.872  271.249  270.999  270.981  271.023  269.398  273.943  274.129  271.734  271.194  270.954  270.245  269.541  269.808  270.620  271.551  272.670  271.010  271.302  270.916  271.165  270.843  270.511  271.182  270.951  271.281  269.944  271.446  270.660  270.746  270.928  270.991  270.878  271.956  270.557  271.325  270.877  270.729  270.967  270.962  270.915  269.580  269.787  270.030  269.317  270.202  269.538  269.396  270.287  270.058  269.986  268.789  269.969  269.055  268.354  268.951  269.599  268.640  269.554  270.278  269.754  269.494  268.858  268.242  270.128  269.136  269.902  269.672  270.163  269.920  270.151  270.494  270.985  271.061  270.447  270.863  269.993  270.198  268.384  270.285  270.557  269.703  269.594  269.585  270.500  269.983  270.267  271.158  270.436  270.221  270.058  270.100  269.546  270.203  269.696  269.962  270.271  270.909  269.788  270.117  270.168  269.526  270.255  270.422  269.377  269.884  269.823  269.989  268.999  269.766  270.201  270.088  270.290  269.801  270.253  270.293  270.227  269.545  269.609  269.870  269.320  268.959  269.943  270.041  269.352  269.357  268.951  268.475  268.117  269.192  269.686  268.801  268.988  269.390  268.721  269.462  270.046  268.849  269.059  269.785  268.535  269.236  269.618  270.484  269.457  268.663  269.569  268.829  271.416  269.455  270.820  269.922  270.790  270.536  269.910  268.695  268.846  268.471  269.647  268.352  267.897  267.981  269.730  271.179 
DATE 2015:208:19:11:57 obsn  17 az   0 el 60 freq_MHz  1421.5000 Tsys 182.760 Tant -5.826 vlsr   -9.15 glat 40.930 glon 135.150 source at_stow
Fstart 1420.497 fstop 1422.503 spacing 0.009375 bw    2.400 fbw    2.000 MHz nfreq 256 nsam 1048576 npoint 214 integ    42 sigma    0.291 bsw 0
Spectrum 
 265.954  266.657  266.062  267.325  267.825  268.557  268.387  268.008  268.539  268.413  267.525  267.592  268.153  267.149  269.142  267.624  270.588  268.841  268.075  268.405  268.134  267.580  268.425  267.702  270.923  266.656  267.379  267.373  266.811  265.916  265.721  266.331  265.307  264.953  264.798  264.749  266.049  266.577  288.362  264.810  264.892  264.421  264.115  264.873  265.159  266.930  265.573  266.670  265.397  264.964  266.011  266.348  266.217  266.102  266.269  264.583  269.051  269.390  266.722  266.279  266.035  265.501  264.638  264.980  265.904  266.695  267.842  266.044  266.339  266.065  266.304  265.986  265.697  266.359  266.053  266.450  265.170  266.538  265.879  265.860  266.067  266.070  265.934  267.083  265.664  266.572  266.103  265.845  266.097  266.129  266.038  264.776  264.984  265.090  264.473  265.366  264.780  264.662  265.410  265.215  265.078  263.990  265.225  264.091  263.510  263.989  264.686  263.828  264.591  265.310  264.917  264.617  263.946  263.400  265.194  264.150  264.975  264.715  265.296  265.074  265.264  265.560  266.128  266.044  265.569  265.914  265.129  265.387  263.682  265.310  265.773  264.836  264.700  264.658  265.773  265.232  265.423  266.203  265.519  265.378  265.158  265.225  264.739  265.359  264.799  265.028  265.402  266.017  264.995  265.202  265.312  264.658  265.312  265.508  264.390  264.841  264.930  265.167  264.212  264.926  265.463  265.121  265.337  264.846  265.322  265.273  265.343  264.611  264.692  264.941  264.448  264.115  265.016  265.117  264.410  264.401  264.058  263.728  263.256  264.223  264.775  263.853  264.070  264.448  263.867  264.522  265.098  264.014  264.145  264.962  263.571  264.274  264.641  265.557  264.538  263.746  264.590  263.932  266.526  264.568  265.788  264.902  265.860  265.581  264.978  263.785  263.884  263.537  264.831  263.418  262.870  262.964  264.882  266.225 
DATE 2015:208:19:21:28 obsn   0 az 242 el 52 freq_MHz  1421.5000 Tsys 171.900 Tant 894.609 vlsr    9.58 glat 29.380 glon 205.198 source Sun 
Fstart 1420.497 fstop 1422.503 spacing 0.009375 bw    2.400 fbw    2.000 MHz nfreq 256 nsam 1048576 npoint 214 integ     5 sigma    0.829 bsw 0
Spectrum 
 699.043  719.596  714.383  714.674  712.521  718.378  717.327  719.033  715.868  709.496  717.837  728.359  718.654  714.359  720.984  716.981  718.305  725.659  720.130  720.016  721.932  718.296  716.629  710.905  712.166  719.247  714.463  723.819  713.987  714.965  712.538  715.046  717.242  712.103  716.724  712.647  709.757  719.533  736.013  715.165  711.655  710.772  715.308  711.464  710.818  709.237  711.055  717.999  708.389  712.100  720.151  717.238  713.904  719.143  719.336  711.043  719.550  725.422  716.728  713.473  713.067  714.300  721.129  710.920  718.145  719.927  719.028  714.594  711.305  713.458  716.976  719.767  714.279  719.347  717.488  711.144  715.171  710.776  717.166  715.312  723.481  710.639  714.822  713.575  721.239  714.317  714.313  712.047  722.136  719.263  718.925  715.682  714.749  716.055  715.585  713.524  714.542  708.837  712.807  709.487  717.247  714.200  717.054  721.793  713.651  714.992  717.944  717.924  716.638  719.227  710.357  717.934  712.518  715.586  721.932  717.523  714.601  715.349  718.959  721.256  716.764  729.931  722.468  715.519  725.627  719.702  717.493  720.064  721.797  712.501  725.731  720.380  723.216  718.294  727.375  717.060  720.482  713.381  718.071  719.362  717.561  718.007  716.470  724.947  717.644  719.233  718.227  722.437  721.440  719.357  730.786  720.590  726.068  717.243  721.882  722.167  725.442  716.713  721.327  721.123  730.343  726.563  728.469  723.671  725.917  734.328  728.902  726.351  726.950  725.808  736.296  723.583  726.386  721.491  718.770  721.306  723.114  725.567  714.803  725.760  727.336  724.648  728.850  726.570  727.012  720.727  729.998  728.537  730.808  732.592  727.219  729.890  731.948  726.647  725.000  728.090  733.848  733.862  734.052  724.686  724.092  733.398  735.572  725.001  725.681  729.935  728.381  732.703  734.605  725.661  729.582  729.497  728.037  732.869 
DATE 2015:208:19:21:42 obsn   1 az 242 el 52 freq_MHz  1421.5000 Tsys 171.900 Tant 896.421 vlsr    9.58 glat 29.380 glon 205.198 source Sun 
Fstart 1420.497 fstop 1422.503 spacing 0.009375 bw    2.400 fbw    2.000 MHz nfreq 256 nsam 1048576 npoint 214 integ     7 sigma    0.682 bsw 0
Spectrum 
 810.975  828.989  822.807  822.831  825.705  828.319  829.438  828.648  829.233  819.089  824.717  835.235  829.724  826.836  830.430  829.682  833.971  835.586  828.388  831.122  828.902  830.204  828.851  824.030  825.760  829.004  825.599  834.878  825.023  827.972  822.206  823.307  822.060  821.060  828.456  822.552  817.231  826.968  842.980  827.091  825.806  824.787  828.761  822.653  818.011  820.820  819.391  825.547  819.047  818.357  828.937  827.019  825.404  824.907  829.269  820.284  826.092  835.054  825.059  823.379  823.180  825.302  825.450  826.005  827.706  830.479  830.951  824.163  820.924  825.799  830.625  828.927  820.902  829.921  827.163  819.912  827.734  820.349  825.001  821.606  827.979  821.509  821.268  828.594  827.369  829.030  826.235  818.030  832.480  825.932  827.728  823.280  823.909  829.014  829.990  824.339  822.938  821.186  826.916  820.312  823.108  826.591  828.934  830.154  827.362  821.347  828.076  826.471  824.864  830.154  827.486  828.807  824.408  829.231  834.257  824.696  829.615  827.133  833.739  832.921  827.380  837.495  835.978  826.086  836.812  828.914  829.964  827.795  835.813  824.966  835.398  825.932  829.095  827.264  840.499  830.047  834.422  826.496  828.906  828.475  826.464  828.670  836.077  836.479  829.593  835.229  830.780  832.510  833.792  832.949  843.217  830.899  838.212  829.673  835.876  839.350  835.240  831.525  837.626  837.845  845.905  839.541  840.389  836.317  839.405  844.619  843.911  834.389  837.098  838.426  847.043  832.321  838.148  837.744  830.241  833.472  836.451  840.117  835.625  840.798  839.425  837.512  841.522  843.402  840.104  836.434  847.260  840.912  842.176  844.481  848.010  846.010  845.709  842.492  842.183  843.069  849.727  849.554  850.726  848.283  844.543  850.541  851.211  838.689  844.714  844.713  840.731  847.199  853.013  843.918  840.250  847.608  846.207  843.998 
DATE 2015:208:19:21:55 obsn   2 az 242 el 52 freq_MHz  1421.5000 Tsys 171.900 Tant 905.345 vlsr    9.58 glat 29.381 glon 205.198 source Sun 
Fstart 1420.497 fstop 1422.503 spacing 0.009375 bw    2.400 fbw    2.000 MHz nfreq 256 nsam 1048576 npoint 214 integ     9 sigma    0.593 bsw 0
Spectrum 
 867.020  885.516  883.862  880.193  884.588  888.827  887.640  886.979  888.922  880.243  883.360  888.025  886.757  882.697  888.195  887.966  894.292  891.277  886.875  890.985  890.091  888.381  891.176  882.461  880.382  884.613  885.897  895.609  882.227  884.033  880.051  879.357  880.247  879.836  884.332  884.023  879.505  888.983  900.535  881.383  887.602  885.052  887.561  879.559  879.087  881.895  878.511  885.546  880.795  879.901  884.453  885.027  881.208  884.991  885.505  880.174  881.786  892.334  885.059  885.088  880.600  884.335  881.138  885.699  887.967  887.633  891.222  882.586  878.849  884.607  886.266  885.097  878.985  885.770  886.532  879.007  888.825  875.802  884.050  878.239  888.769  882.145  885.831  890.483  886.382  889.111  885.916  878.610  890.229  885.838  888.875  878.330  884.428  887.959  890.322  882.687  883.578  881.076  885.302  880.663  882.872  887.977  890.657  886.216  885.948  879.043  889.549  883.793  884.282  891.623  887.174  885.303  888.202  887.174  891.837  880.627  886.349  884.384  886.885  889.346  885.182  893.872  894.680  883.556  895.869  891.216  887.467  886.638  891.176  887.540  893.272  886.821  887.731  885.454  900.125  886.433  891.431  886.563  890.020  889.291  885.986  886.854  891.696  892.684  887.262  895.791  888.388  892.007  891.990  891.667  901.445  891.632  899.055  888.468  894.672  905.119  899.166  890.518  897.786  903.116  907.050  901.533  904.070  898.553  901.331  908.710  903.210  895.278  896.924  897.733  905.852  893.294  901.601  897.804  895.867  895.918  896.616  900.188  896.526  900.836  900.088  900.094  902.710  900.913  902.281  896.812  903.676  899.387  904.056  904.147  906.911  905.728  904.999  906.360  906.528  903.951  910.720  909.860  909.832  909.405  908.309  913.043  912.461  903.207  906.611  906.424  901.737  908.428  913.268  906.061  906.730  910.643  908.073  907.704 
DATE 2015:208:19:22:08 obsn   3 az 242 el 52 freq_MHz  1421.5000 Tsys 171.900 Tant 914.700 vlsr    9.58 glat 29.381 glon 205.198 source Sun 
Fstart 1420.497 fstop 1422.503 spacing 0.009375 bw    2.400 fbw    2.000 MHz nfreq 256 nsam 1048576 npoint 214 integ    11 sigma    0.532 bsw 0
Spectrum 
 902.685  921.473  921.056  917.752  920.645  924.758  922.480  922.583  925.012  917.079  920.387  921.087  923.077  919.073  922.963  924.107  929.675  926.989  922.898  930.170  925.893  925.465  926.617  919.895  915.931  921.025  921.670  929.106  916.905  919.382  915.603  914.722  916.068  915.017  919.452  915.955  916.077  921.724  936.366  918.707  922.295  920.181  920.554  914.978  915.794  919.362  914.328  922.382  918.382  916.341  920.133  920.651  916.923  922.834  920.972  916.482  919.500  928.529  920.500  919.947  918.222  920.925  916.524  924.295  921.797  924.071  930.872  919.339  918.082  920.122  922.441  921.099  916.288  921.530  920.224  915.514  924.347  912.188  919.496  915.462  926.035  916.783  922.834  928.972  921.634  923.868  919.613  916.799  929.563  921.503  924.397  916.231  920.412  923.632  924.906  919.079  920.855  919.279  921.219  920.018  919.992  924.496  928.087  923.476  921.982  917.655  926.264  918.862  919.934  931.649  923.670  919.099  920.980  922.489  926.863  918.894  922.723  921.012  925.980  923.753  923.022  929.110  932.457  920.681  931.578  925.725  921.354  921.802  923.253  924.285  927.773  922.989  924.526  923.418  938.137  923.383  929.927  925.091  927.251  924.605  921.096  921.262  929.367  927.813  923.178  931.689  925.929  928.487  928.505  930.960  937.165  927.241  934.223  927.641  930.078  939.508  931.985  927.098  936.934  938.794  943.545  933.391  938.358  937.166  937.189  944.946  940.036  932.883  935.694  933.908  945.257  931.348  937.974  932.688  932.675  936.697  933.316  936.465  933.457  936.895  936.736  937.590  936.868  937.330  939.256  936.007  943.180  939.742  945.841  940.013  945.545  943.161  943.592  943.636  945.182  942.921  948.187  948.387  946.056  946.743  944.403  949.373  949.651  940.932  948.971  943.656  937.853  946.840  951.228  944.311  944.559  951.337  947.364  947.156 
DATE 2015:208:19:22:21 obsn   4 az 242 el 52 freq_MHz  1421.5000 Tsys 171.900 Tant 915.769 vlsr    9.58 glat 29.381 glon 205.198 source Sun 
Fstart 1420.497 fstop 1422.503 spacing 0.009375 bw    2.400 fbw    2.000 MHz nfreq 256 nsam 1048576 npoint 214 integ    13 sigma    0.486 bsw 0
Spectrum 
 927.661  946.362  945.560  942.934  945.821  951.013  947.730  946.872  947.207  944.056  945.192  945.321  948.097  942.956  945.682  947.228  956.032  953.148  949.797  955.280  949.878  951.233  949.682  945.618  942.855  946.940  948.248  952.760  943.701  942.117  940.209  939.857  942.354  940.604  944.251  939.783  939.229  944.609  960.607  942.778  946.900  944.824  945.625  939.231  940.670  946.466  940.703  949.213  943.650  941.425  943.368  944.493  942.141  947.586  946.690  942.513  945.328  953.349  945.968  942.452  946.947  944.645  940.864  949.457  944.587  949.665  957.340  945.873  942.869  946.459  946.354  945.828  942.894  948.705  946.003  940.870  947.810  939.498  945.319  942.630  950.400  941.279  947.010  952.925  945.890  950.421  946.413  942.322  957.783  947.743  949.306  941.764  946.849  949.565  949.486  944.700  944.587  945.281  946.235  946.130  943.908  948.645  949.765  948.737  948.703  944.884  953.073  944.198  945.897  957.505  948.118  944.892  948.159  948.849  951.769  946.535  946.958  946.577  949.639  948.627  948.411  954.981  958.818  947.168  958.021  950.031  946.946  947.166  948.328  950.887  952.443  947.820  949.200  949.574  963.571  949.589  955.290  950.677  954.449  953.304  949.917  947.549  955.053  953.498  948.269  957.120  951.923  953.709  954.864  957.779  961.025  954.055  960.160  954.068  954.211  966.491  959.190  954.051  963.846  965.883  971.716  960.579  961.906  961.738  963.177  969.961  964.843  957.727  961.741  960.220  973.119  958.201  963.697  959.081  959.554  962.734  958.100  962.879  960.358  962.958  963.492  961.137  962.611  963.272  963.083  962.866  968.953  965.016  969.977  965.858  969.479  970.223  969.946  971.183  969.834  970.615  972.259  973.494  970.953  972.789  970.960  977.506  974.354  967.166  975.146  970.787  965.854  970.654  979.671  972.581  972.287  977.888  973.811  972.652 
DATE 2015:208:19:22:37 obsn   5 az 243 el 51 freq_MHz  1421.5000 Tsys 171.900 Tant 817.677 vlsr    9.58 glat 29.381 glon 205.198 source Sun 
Fstart 1420.497 fstop 1422.503 spacing 0.009375 bw    2.400 fbw    2.000 MHz nfreq 256 nsam 1048576 npoint 214 integ    16 sigma    0.451 bsw 0
Spectrum 
 941.433  956.651  958.441  955.621  957.439  962.449  959.659  958.154  957.179  956.091  956.948  956.286  959.940  955.825  957.896  960.169  966.760  965.499  960.864  968.104  961.924  963.593  963.340  958.311  956.039  958.400  959.822  964.101  955.763  955.404  953.368  948.913  956.571  952.572  954.848  951.579  952.519  956.776  973.383  954.987  958.261  955.379  960.849  952.786  951.707  957.251  952.235  960.738  957.949  954.021  956.685  955.803  956.077  960.462  960.396  953.870  957.921  965.905  956.892  956.465  960.243  956.771  954.613  961.083  957.469  961.445  969.511  958.314  954.998  957.360  957.163  958.779  956.113  960.381  957.124  951.930  959.448  952.090  958.748  954.451  962.867  954.566  956.643  965.571  956.194  963.032  959.466  954.011  971.408  959.221  958.841  954.738  959.492  963.814  963.214  957.128  957.769  957.906  958.291  958.368  958.309  961.307  962.009  959.252  961.951  957.725  966.502  956.270  958.012  969.365  959.930  956.214  960.911  961.408  963.911  958.857  959.430  959.445  961.431  961.398  961.649  967.852  970.637  960.007  970.238  961.637  958.799  960.207  960.400  963.929  964.483  960.549  960.682  960.317  974.500  963.839  965.932  964.999  965.574  965.868  960.604  959.920  966.299  964.889  961.211  969.572  962.920  965.158  967.738  970.456  972.414  966.892  972.483  965.790  966.864  978.352  971.422  968.029  973.535  975.458  983.993  971.833  974.167  973.787  973.713  983.276  977.359  971.154  972.327  972.059  984.869  971.464  975.097  970.960  971.614  972.093  970.926  974.077  972.142  973.976  973.398  971.767  974.680  975.073  974.562  976.377  981.286  977.823  982.789  979.078  980.754  980.069  981.306  982.249  983.565  982.281  985.483  984.602  982.438  983.331  982.863  986.502  985.276  978.315  988.622  982.282  976.555  981.489  991.755  985.829  982.448  989.602  986.579  986.028 
DATE 2015:208:19:22:50 obsn   6 az 243 el 51 freq_MHz  1421.5000 Tsys 171.900 Tant 839.335 vlsr    9.58 glat 29.381 glon 205.198 source Sun 
Fstart 1420.497 fstop 1422.503 spacing 0.009375 bw    2.400 fbw    2.000 MHz nfreq 256 nsam 1048576 npoint 214 integ    18 sigma    0.422 bsw 0
Spectrum 
 945.481  961.252  963.119  960.452  962.327  967.271  964.215  961.402  962.142  960.584  961.990  960.892  963.974  959.173  962.012  965.035  973.263  970.566  966.363  972.065  967.300  968.331  969.564  962.614  961.473  963.535  964.600  969.471  960.629  961.265  957.585  955.194  961.951  956.926  959.053  957.462  958.221  962.212  980.525  958.987  963.312  962.033  965.589  959.361  957.036  962.243  958.852  964.746  964.867  960.265  961.723  960.579  960.382  966.116  966.757  959.007  963.972  970.205  961.399  960.358  966.477  962.780  960.176  967.473  963.662  967.304  975.090  965.526  961.395  964.179  961.612  964.620  961.890  965.707  961.836  957.907  964.464  957.766  965.023  960.569  967.813  961.368  962.637  973.043  961.848  969.633  965.198  960.498  976.657  964.537  964.842  959.727  965.331  969.743  969.321  961.854  962.113  964.217  965.845  963.183  964.657  966.682  967.600  964.867  966.810  962.948  970.450  961.294  962.949  973.201  964.147  962.338  967.712  966.294  968.813  965.220  964.080  963.746  966.539  966.791  965.635  972.452  974.849  966.849  974.918  968.024  963.693  965.808  967.028  969.099  968.037  966.753  967.434  966.016  979.794  970.475  970.738  970.404  969.378  972.867  967.137  966.379  970.214  970.570  967.784  973.789  969.600  970.346  973.076  975.333  977.821  972.448  977.773  971.192  972.624  985.026  975.985  975.020  977.887  979.577  988.614  977.221  976.914  978.944  978.299  988.998  981.480  975.377  975.138  976.111  990.387  977.444  980.417  974.371  975.505  976.507  975.955  977.995  976.015  977.394  976.323  976.164  976.742  979.635  977.574  980.452  985.976  982.816  988.143  982.952  983.613  983.983  983.657  984.822  986.541  985.712  988.773  989.503  987.064  987.486  987.447  988.558  989.533  981.573  993.042  986.154  981.426  986.422  994.188  988.637  984.566  993.956  991.790  989.699 
DATE 2015:208:19:23:03 obsn   7 az 243 el 51 freq_MHz  1421.5000 Tsys 171.900 Tant 854.662 vlsr    9.58 glat 29.381 glon 205.199 source Sun 
Fstart 1420.497 fstop 1422.503 spacing 0.009375 bw    2.400 fbw    2.000 MHz nfreq 256 nsam 1048576 npoint 214 integ    20 sigma    0.398 bsw 0
Spectrum 
 951.249  966.755  967.531  965.217  965.308  973.089  969.400  964.555  967.352  964.355  967.610  965.416  968.289  965.500  967.095  969.972  978.568  974.143  970.861  976.306  973.427  972.935  974.369  967.254  967.425  967.590  969.442  973.724  965.729  966.795  962.340  960.056  967.356  962.993  963.533  964.217  962.416  967.141  985.425  963.179  968.379  966.902  971.060  963.110  963.335  968.060  962.550  971.045  969.046  966.973  966.366  967.235  966.355  971.692  971.059  965.363  968.836  974.086  968.694  965.874  969.326  968.149  966.677  971.791  967.811  972.589  981.370  970.404  966.494  970.196  966.877  969.670  966.114  971.040  966.316  963.235  969.910  963.740  969.977  965.229  971.754  968.233  967.680  977.702  966.651  974.051  971.837  964.341  982.605  969.866  969.602  965.404  970.118  973.606  975.131  966.417  967.720  970.434  971.468  969.716  970.328  971.781  972.684  970.038  973.654  968.982  975.768  966.137  968.862  978.257  969.216  966.874  973.175  972.035  973.363  970.198  969.898  969.618  972.108  972.675  970.604  977.794  979.219  972.760  979.619  973.326  968.943  970.436  972.135  973.363  972.505  972.138  973.940  970.755  984.389  975.617  974.732  975.789  974.211  977.380  972.852  972.481  974.873  975.466  973.080  979.015  975.896  975.342  978.499  981.360  982.885  977.164  982.263  977.551  978.546  990.842  979.838  980.300  983.423  984.487  993.400  981.674  980.118  983.638  982.880  993.966  984.995  980.167  981.578  981.293  995.456  982.226  985.299  979.656  979.674  981.151  979.094  983.640  979.974  982.016  980.146  981.263  981.868  985.600  982.716  985.324  990.311  985.541  992.586  987.354  987.847  989.096  986.284  990.059  990.550  989.109  993.653  992.582  992.080  990.986  990.515  992.802  993.084  987.253  997.255  989.566  986.254  990.217  997.123  993.365  989.356  997.727  994.693  992.823 
DATE 2015:208:19:23:16 obsn   8 az 243 el 51 freq_MHz  1421.5000 Tsys 171.900 Tant 858.096 vlsr    9.58 glat 29.381 glon 205.199 source Sun 
Fstart 1420.497 fstop 1422.503 spacing 0.009375 bw    2.400 fbw    2.000 MHz nfreq 256 nsam 1048576 npoint 214 integ    22 sigma    0.378 bsw 0
Spectrum 
 955.212  970.976  971.091  970.919  970.021  978.044  973.437  969.991  971.411  969.130  972.137  970.558  974.067  970.410  972.453  975.489  982.073  980.214  976.428  980.564  977.546  979.397  980.137  971.784  973.346  973.388  974.730  978.691  970.467  971.784  967.765  964.925  972.955  968.515  969.344  968.605  967.014  972.816  991.000  968.372  974.069  971.059  975.684  968.391  968.966  972.895  967.220  977.581  973.832  972.499  972.431  972.171  971.304  976.578  975.468  971.182  974.318  978.735  974.229  969.707  975.141  973.798  972.462  979.170  973.654  976.799  986.823  975.982  973.021  974.758  972.097  974.502  970.714  975.733  971.200  968.640  975.214  968.930  977.113  971.571  977.399  973.225  972.560  982.855  970.925  978.207  978.000  971.522  987.787  974.687  975.562  971.638  974.791  980.000  980.805  970.903  973.199  975.800  975.782  976.121  975.505  976.680  978.508  975.889  979.104  973.901  980.055  970.441  974.491  984.019  974.865  973.137  978.046  977.356  979.061  976.033  976.212  973.765  978.353  979.268  976.474  983.723  984.342  977.294  985.154  978.596  974.425  975.508  976.812  978.576  978.208  977.599  977.941  977.130  989.462  981.609  978.456  980.876  979.537  982.624  978.911  977.385  978.313  981.762  978.601  984.591  980.806  979.130  984.085  986.053  988.059  981.860  986.859  983.335  984.328  997.253  985.343  985.630  986.952  990.010  997.457  985.949  985.194  987.266  988.951  999.121  990.103  985.232  987.319  985.840 1000.592  986.991  990.996  983.706  984.075  986.153  983.587  988.527  984.772  987.149  985.485  986.795  986.101  990.969  986.339  989.392  995.007  991.043  997.962  991.842  993.231  993.324  990.414  994.743  994.104  994.733  999.722  998.021  997.244  996.136  996.476  998.038  997.822  992.941 1002.949  993.219  989.822  994.420 1001.635  997.198  993.616 1002.299  998.930  996.983 
DATE 2015:208:19:23:29 obsn   9 az 243 el 51 freq_MHz  1421.5000 Tsys 171.900 Tant 868.602 vlsr    9.58 glat 29.381 glon 205.199 source Sun 
Fstart 1420.497 fstop 1422.503 spacing 0.009375 bw    2.400 fbw    2.000 MHz nfreq 256 nsam 1048576 npoint 214 integ    24 sigma    0.361 bsw 0
Spectrum 
 959.695  975.257  976.867  975.445  975.427  982.482  978.429  974.431  975.467  973.969  976.281  974.672  977.499  974.403  977.608  979.274  986.656  984.162  982.461  985.874  982.069  983.431  984.311  976.217  978.095  979.709  979.943  983.627  974.131  975.742  972.454  969.943  977.098  973.112  973.600  972.726  972.138  977.005  995.218  972.868  978.970  974.583  981.270  973.828  973.881  977.516  972.194  982.724  979.724  977.647  975.777  976.318  975.365  981.206  979.441  976.265  979.424  983.874  978.094  974.428  979.089  979.038  976.466  984.548  978.638  980.708  992.313  980.103  978.265  979.152  976.337  979.989  974.818  980.503  975.007  974.397  979.600  974.754  983.148  976.721  982.064  978.094  977.508  988.230  976.136  983.127  982.283  976.202  992.285  979.533  980.020  977.233  979.434  984.818  985.292  975.353  978.655  980.180  980.910  981.648  981.100  980.348  983.382  979.745  984.367  979.513  985.191  976.115  978.775  988.696  979.470  978.174  982.867  982.643  984.237  980.270  979.788  978.342  982.932  984.358  981.153  988.663  989.266  982.741  989.821  981.766  979.482  980.311  982.008  983.282  982.493  982.797  982.938  982.026  993.798  986.628  983.854  984.991  984.134  986.994  984.560  982.197  983.964  987.284  984.608  990.505  986.190  983.604  988.892  991.243  992.447  986.288  990.617  988.051  989.847 1002.151  989.833  989.786  992.484  994.264 1002.274  991.096  990.960  993.043  994.437 1002.891  994.782  990.399  991.169  990.458 1006.082  991.712  994.847  989.120  988.880  990.818  988.116  993.661  988.073  991.241  990.641  989.952  991.196  996.400  990.052  993.734  999.407  995.897 1001.778  996.555  998.784  998.808  995.658  998.718  998.615  998.992 1004.299 1001.597 1001.262 1001.495 1000.638 1002.956 1002.673  997.781 1006.821  997.586  995.557  998.526 1005.733 1000.987  997.334 1005.818 1002.760 1000.768 
DATE 2015:208:19:23:43 obsn  10 az 243 el 51 freq_MHz  1421.5000 Tsys 171.900 Tant 872.742 vlsr    9.58 glat 29.381 glon 205.199 source Sun 
Fstart 1420.497 fstop 1422.503 spacing 0.009375 bw    2.400 fbw    2.000 MHz nfreq 256 nsam 1048576 npoint 214 integ    26 sigma    0.345 bsw 0
Spectrum 
 964.743  979.078  981.939  981.083  980.971  987.013  982.702  979.495  979.070  977.540  980.848  979.086  982.232  979.334  982.399  984.272  990.992  988.668  986.285  990.729  987.220  988.594  988.959  981.282  983.354  984.000  985.064  988.218  977.877  979.612  977.236  974.594  982.561  977.646  978.600  978.677  976.739  980.453  998.382  977.867  983.265  978.111  985.838  977.853  979.122  982.833  976.674  987.173  984.374  982.049  979.817  981.141  980.257  986.806  984.316  980.843  985.198  989.570  983.688  979.530  983.542  983.347  980.946  988.774  984.365  985.973  997.729  985.395  982.298  982.056  981.409  985.413  980.326  985.302  979.219  980.091  983.861  980.472  988.334  981.221  985.877  982.848  982.369  993.106  980.129  987.966  987.584  982.261  997.424  983.879  984.548  982.518  984.887  990.002  989.915  980.699  984.555  985.097  985.602  987.139  986.829  985.629  987.766  984.992  988.692  984.158  990.224  982.791  983.956  993.316  984.464  982.941  986.168  987.607  988.985  985.379  984.694  983.301  989.119  990.052  986.115  994.326  993.966  988.976  994.148  987.376  984.609  984.358  985.945  988.846  987.548  986.858  987.886  988.010  998.303  990.944  988.544  989.605  988.587  991.455  989.377  987.645  988.012  991.407  989.637  995.606  991.540  988.141  992.647  996.769  997.295  991.574  996.357  991.485  993.759 1007.400  995.002  995.306  997.614  999.755 1006.964  996.165  996.003  999.274  998.830 1007.891 1000.074  994.923  995.909  993.535 1010.788  995.547  999.991  994.794  993.113  995.841  992.782  997.926  993.145  994.008  996.167  994.249  995.175 1001.372  995.192  998.808 1004.183 1000.946 1007.652 1001.380 1003.923 1003.729 1001.175 1002.318 1002.703 1003.826 1008.456 1005.471 1005.281 1006.552 1005.816 1007.491 1006.191 1001.850 1010.423 1002.196  999.567 1002.859 1011.891 1005.115 1000.811 1009.387 1006.589 1004.499 
DATE 2015:208:19:23:56 obsn  11 az 243 el 51 freq_MHz  1421.5000 Tsys 171.900 Tant 876.466 vlsr    9.58 glat 29.382 glon 205.199 source Sun 
Fstart 1420.497 fstop 1422.503 spacing 0.009375 bw    2.400 fbw    2.000 MHz nfreq 256 nsam 1048576 npoint 214 integ    29 sigma    0.332 bsw 0
Spectrum 
 968.434  982.976  985.862  984.831  985.036  991.456  987.202  983.100  982.975  981.376  984.231  983.297  988.065  983.767  987.070  988.637  995.079  992.369  990.441  994.878  991.029  992.836  993.724  985.860  987.598  987.770  989.932  992.291  982.210  984.602  980.548  979.236  985.628  981.620  982.591  982.772  980.436  984.982 1003.426  982.929  987.861  982.725  990.833  981.723  982.456  986.386  981.661  990.870  988.828  986.302  983.885  985.637  985.769  990.889  987.958  984.885  989.060  993.076  988.877  984.521  988.108  987.875  985.920  993.824  989.035  991.028 1003.236  989.919  986.496  986.819  986.302  990.825  983.994  989.096  984.582  983.986  987.580  986.200  992.125  986.213  989.182  987.612  986.877  997.993  986.019  992.825  992.611  987.007 1001.105  988.687  988.940  987.002  989.638  993.555  994.254  985.827  989.323  990.528  990.136  991.816  990.723  990.211  992.256  989.141  993.696  988.433  994.505  986.805  988.490  997.835  989.276  988.150  990.945  991.915  993.494  990.310  989.395  988.594  993.495  994.109  990.246  998.032  997.823  993.734  999.332  992.665  989.692  988.295  990.861  993.303  992.624  991.471  992.473  991.646 1002.728  995.744  993.900  994.857  993.500  995.295  994.467  992.010  992.003  995.676  994.367 1000.174  997.173  993.193  997.780 1001.487 1002.879  996.077 1001.764  995.415  997.402 1011.895  998.956  999.232 1002.536 1004.271 1011.399 1000.842  999.776 1003.124 1003.047 1012.861 1004.505  999.398 1000.862  997.244 1015.800  999.611 1004.201  999.026  997.608  999.760  997.118 1002.739  997.377  999.205 1000.219  999.440  999.307 1006.421 1000.271 1002.577 1009.044 1004.896 1012.012 1005.987 1008.571 1008.750 1005.554 1006.782 1006.957 1007.728 1011.993 1009.283 1009.343 1010.680 1010.821 1011.727 1010.258 1006.267 1015.091 1005.647 1003.720 1007.200 1016.062 1008.587 1005.283 1013.071 1011.112 1008.543 
DATE 2015:208:19:24:09 obsn  12 az 243 el 51 freq_MHz  1421.5000 Tsys 171.900 Tant 889.046 vlsr    9.58 glat 29.382 glon 205.199 source Sun 
Fstart 1420.497 fstop 1422.503 spacing 0.009375 bw    2.400 fbw    2.000 MHz nfreq 256 nsam 1048576 npoint 214 integ    31 sigma    0.320 bsw 0
Spectrum 
 971.773  987.468  989.403  989.349  988.913  996.071  990.745  987.770  987.033  985.185  988.267  986.853  992.350  987.512  991.119  991.881  998.782  996.297  993.884  998.793  995.199  996.540  997.540  989.458  992.408  991.015  993.358  996.219  986.700  988.331  984.856  983.964  990.660  984.936  986.116  987.178  983.525  989.390 1007.585  987.445  992.194  987.008  995.180  986.004  985.709  990.768  986.390  995.079  992.888  990.823  987.896  989.690  990.022  994.865  991.729  989.798  994.095  997.021  993.588  989.188  992.457  991.129  989.671  998.794  992.850  994.912 1007.391  993.915  990.318  991.146  990.746  995.583  988.171  993.059  989.742  988.500  991.925  989.900  996.893  990.097  993.825  991.782  991.263 1002.377  990.218  996.067  996.786  991.263 1004.732  993.610  994.157  991.718  995.231  998.261  998.554  990.793  993.445  994.445  994.085  996.324  994.437  994.751  996.915  993.021  997.611  992.139  998.024  991.811  992.845 1001.975  993.878  992.759  995.135  995.754  997.262  994.603  993.831  993.030  997.784  998.269  994.101 1001.798 1001.477  997.422 1003.669  996.446  994.154  992.312  995.074  997.369  997.298  996.253  996.513  995.848 1007.229 1000.982  997.033  998.821  997.999  999.763  998.326  995.560  997.356 1000.061  998.872 1004.765 1001.291  997.894 1001.143 1005.252 1007.243  999.822 1005.731  999.378 1001.826 1015.957 1002.213 1003.142 1005.775 1008.076 1014.943 1004.670 1003.983 1007.323 1007.020 1016.856 1008.416 1003.810 1005.192 1000.630 1019.683 1004.081 1008.519 1002.773 1001.885 1003.764 1000.732 1006.248 1001.819 1003.193 1004.541 1003.905 1003.319 1010.806 1005.001 1005.960 1013.188 1009.216 1016.434 1009.213 1012.200 1013.310 1009.529 1010.900 1011.459 1010.956 1016.230 1012.740 1012.670 1014.846 1014.752 1015.231 1013.320 1010.213 1019.003 1009.995 1007.234 1011.241 1019.575 1013.297 1010.235 1016.991 1014.665 1012.081 
DATE 2015:208:19:24:22 obsn  13 az 243 el 51 freq_MHz  1421.5000 Tsys 171.900 Tant 888.387 vlsr    9.58 glat 29.382 glon 205.199 source Sun 
Fstart 1420.497 fstop 1422.503 spacing 0.009375 bw    2.400 fbw    2.000 MHz nfreq 256 nsam 1048576 npoint 214 integ    33 sigma    0.309 bsw 0
Spectrum 
 975.591  990.978  994.252  993.605  993.080 1000.396  994.648  991.746  991.762  989.469  992.856  990.829  995.518  992.274  995.590  995.653 1002.965 1001.260  998.166 1003.278  999.312 1000.393 1001.996  993.946  997.171  994.928  997.028 1000.389  991.034  992.716  989.450  988.701  994.745  989.244  991.329  991.860  987.646  993.064 1010.583  991.397  995.927  991.489  998.570  989.168  990.783  995.419  990.348  998.893  997.098  995.758  992.354  994.104  994.227  998.926  996.094  994.214  998.176 1001.005  997.550  994.457  995.269  994.710  993.640 1003.456  996.398  999.163 1011.477  997.263  994.539  995.142  993.809  999.925  992.348  997.371  994.375  992.935  996.514  994.676 1001.541  994.377  998.016  996.454  995.466 1006.833  994.883 1000.533 1000.577  994.547 1008.710  998.349  997.744  995.843  999.582 1003.046 1002.425  994.725  997.475  998.001  998.374 1001.401  999.071  999.457 1001.554  996.662 1001.847  996.454 1002.008  996.265  997.904 1006.505  998.650  997.483  999.077  999.887 1001.257  998.372  997.913  997.174 1002.358 1002.813  998.646 1005.212 1006.773 1001.719 1008.181 1001.670  998.925  996.853 1000.182 1001.371 1000.963 1000.909 1001.005  999.842 1010.529 1004.698 1001.171 1002.625 1002.075 1004.183 1002.578  998.956 1001.402 1003.732 1003.388 1008.703 1004.556 1002.429 1005.089 1008.789 1010.899 1003.581 1009.697 1003.468 1005.801 1020.818 1006.894 1007.083 1010.727 1011.947 1018.526 1008.302 1009.201 1011.540 1010.756 1022.485 1012.398 1007.836 1008.954 1004.787 1022.916 1008.851 1011.345 1006.510 1005.669 1008.336 1004.791 1010.703 1006.335 1007.192 1008.657 1008.173 1007.728 1014.060 1008.495 1009.728 1017.645 1013.587 1021.188 1012.688 1015.064 1017.596 1013.656 1015.657 1015.059 1014.721 1020.329 1016.592 1016.616 1019.093 1018.881 1019.362 1015.740 1013.423 1023.772 1013.974 1012.048 1014.747 1023.316 1017.602 1014.095 1020.665 1019.711 1016.615 
DATE 2015:208:19:24:36 obsn  14 az 243 el 51 freq_MHz  1421.5000 Tsys 171.900 Tant 905.988 vlsr    9.58 glat 29.382 glon 205.199 source Sun 
Fstart 1420.497 fstop 1422.503 spacing 0.009375 bw    2.400 fbw    2.000 MHz nfreq 256 nsam 1048576 npoint 214 integ    35 sigma    0.299 bsw 0
Spectrum 
 979.450  995.240  997.779  997.283  997.714 1004.943  999.058  995.823  994.902  993.762  995.623  995.150  999.999  996.589  999.305  999.070 1006.765 1004.984 1001.713 1006.578 1002.954 1004.359 1005.763  997.715 1001.146  999.146 1001.138 1004.079  995.146  996.444  993.775  992.661  998.858  993.906  994.816  995.634  991.471  996.260 1014.675  995.791 1001.127  995.298 1002.005  992.660  995.139  999.491  994.224 1002.093 1000.649  999.978  996.278  998.256  998.525 1003.383 1000.161  998.384 1003.307 1005.687 1001.473  999.045  999.227  999.530  998.737 1006.884 1000.522 1003.354 1015.356 1000.998  998.448  999.544  998.222 1003.494  996.667 1001.044  998.703  995.986 1000.070  998.574 1006.429  998.841 1001.923 1000.961  999.275 1011.160  999.030 1004.924 1005.587  999.551 1012.003 1002.544 1001.660 1000.326 1003.247 1006.730 1006.571  999.156 1001.702 1001.938 1002.873 1005.815 1003.643 1003.078 1006.117 1001.255 1005.469 1001.145 1006.368 1000.319 1002.173 1010.807 1003.310 1001.391 1003.510 1003.778 1004.954 1002.915 1003.279 1001.387 1006.071 1006.917 1002.583 1009.142 1010.523 1005.796 1011.831 1005.811 1003.014 1001.170 1004.650 1006.112 1004.266 1004.647 1004.696 1003.663 1014.304 1009.164 1004.989 1006.387 1005.945 1007.888 1006.490 1002.570 1005.606 1007.240 1007.545 1013.480 1009.220 1006.996 1009.903 1013.170 1015.246 1007.195 1013.094 1008.171 1011.033 1024.211 1010.869 1010.882 1014.138 1015.580 1022.435 1012.073 1013.581 1015.833 1014.309 1026.220 1016.355 1011.565 1012.269 1009.266 1026.182 1012.883 1015.133 1010.029 1009.246 1012.813 1009.762 1013.954 1010.193 1009.696 1012.865 1012.267 1012.077 1018.021 1011.960 1013.792 1020.549 1016.956 1024.792 1016.730 1018.838 1022.068 1017.670 1020.417 1018.568 1018.766 1024.925 1020.166 1020.497 1022.876 1021.826 1022.925 1020.076 1018.469 1026.991 1017.299 1016.415 1018.824 1027.706 1021.875 1017.665 1024.608 1023.576 1020.664 
DATE 2015:208:19:24:49 obsn  15 az 243 el 51 freq_MHz  1421.5000 Tsys 171.900 Tant 906.180 vlsr    9.58 glat 29.382 glon 205.199 source Sun 
Fstart 1420.497 fstop 1422.503 spacing 0.009375 bw    2.400 fbw    2.000 MHz nfreq 256 nsam 1048576 npoint 214 integ    37 sigma    0.290 bsw 0
Spectrum 
 983.141  998.650 1001.379 1000.965 1001.918 1008.361 1003.265  999.320  998.656  997.932  999.481  999.755 1003.451 1000.263 1003.188 1003.297 1010.802 1008.937 1005.570 1010.401 1007.036 1008.241 1009.230 1001.867 1005.456 1003.131 1004.963 1007.549  999.470 1000.733  998.020  997.386 1003.780  998.512  998.961  999.227  994.964  999.859 1019.089  999.661 1004.902  999.165 1006.779  997.219  998.374 1003.684  998.003 1005.899 1004.777 1003.584  999.865 1002.419 1002.560 1007.203 1003.385 1003.053 1007.793 1008.969 1005.110 1002.383 1003.190 1003.453 1003.200 1010.385 1004.142 1006.674 1019.182 1004.673 1002.260 1004.052 1002.516 1006.714 1000.703 1004.557 1002.542 1000.236 1004.061 1003.438 1010.077 1003.081 1006.825 1005.149 1003.819 1015.347 1002.816 1009.027 1009.979 1004.244 1016.398 1006.361 1005.705 1004.256 1007.383 1010.968 1011.246 1003.527 1005.539 1005.769 1006.830 1009.565 1006.910 1007.327 1010.561 1005.804 1008.263 1005.530 1010.128 1004.364 1006.689 1014.744 1006.764 1004.538 1007.857 1007.043 1009.349 1006.815 1007.234 1005.992 1011.046 1011.448 1007.412 1012.999 1013.592 1008.777 1016.702 1010.291 1006.903 1005.781 1008.332 1010.077 1008.442 1007.861 1008.641 1007.061 1018.260 1013.019 1008.440 1010.038 1009.992 1012.718 1010.601 1006.421 1010.335 1009.975 1010.740 1017.150 1014.008 1010.913 1013.086 1016.894 1018.394 1011.223 1017.024 1012.532 1014.664 1029.070 1014.717 1014.661 1017.848 1019.553 1026.010 1016.524 1017.776 1019.760 1017.546 1029.462 1019.993 1015.980 1016.615 1014.112 1030.098 1017.455 1019.097 1013.794 1013.658 1016.824 1013.467 1017.739 1014.728 1013.352 1016.088 1016.691 1015.906 1021.655 1016.518 1018.040 1025.005 1020.664 1028.503 1020.684 1022.691 1026.319 1021.488 1024.371 1022.856 1022.667 1028.377 1024.881 1024.998 1027.596 1024.911 1026.763 1023.858 1022.468 1031.205 1020.122 1020.513 1023.058 1031.458 1026.366 1022.639 1027.717 1027.818 1024.334 
DATE 2015:208:19:25:02 obsn  16 az 243 el 51 freq_MHz  1421.5000 Tsys 171.900 Tant 913.392 vlsr    9.58 glat 29.382 glon 205.199 source Sun 
Fstart 1420.497 fstop 1422.503 spacing 0.009375 bw    2.400 fbw    2.000 MHz nfreq 256 nsam 1048576 npoint 214 integ    40 sigma    0.282 bsw 0
Spectrum 
 986.579 1001.928 1004.790 1005.085 1005.108 1011.512 1006.501 1003.161 1002.496 1002.083 1002.620 1003.200 1006.649 1003.961 1006.612 1006.750 1014.978 1012.708 1009.237 1013.918 1010.173 1011.787 1012.679 1005.804 1010.217 1006.618 1008.424 1011.007 1003.016 1004.874 1002.802 1001.424 1007.330 1002.228 1002.869 1002.353  998.630 1003.322 1022.646 1003.821 1008.438 1002.779 1010.177 1000.381 1002.652 1007.440 1002.373 1009.631 1008.913 1007.546 1003.337 1005.704 1006.220 1010.463 1007.584 1006.890 1011.247 1012.772 1008.670 1006.997 1007.455 1007.006 1007.255 1014.144 1008.161 1010.336 1022.269 1008.084 1005.641 1007.532 1006.012 1009.621 1004.565 1009.048 1006.332 1004.185 1007.474 1006.956 1014.427 1007.299 1010.772 1008.823 1007.274 1019.571 1007.574 1012.220 1013.837 1008.103 1020.203 1010.799 1009.553 1008.926 1011.156 1015.315 1016.528 1007.293 1010.211 1010.567 1010.805 1012.730 1010.905 1011.619 1014.746 1009.694 1012.418 1009.254 1014.138 1007.998 1011.010 1019.147 1011.239 1009.164 1012.046 1011.375 1013.401 1011.043 1011.777 1009.598 1015.250 1015.480 1011.782 1016.297 1017.927 1012.499 1021.014 1014.030 1011.181 1009.584 1012.604 1013.841 1012.446 1011.682 1012.607 1011.259 1021.682 1016.649 1011.615 1013.789 1014.687 1017.007 1014.969 1010.364 1014.573 1013.764 1014.055 1021.378 1017.615 1015.798 1016.851 1020.666 1022.531 1014.913 1020.111 1016.723 1018.748 1032.400 1018.519 1017.902 1021.984 1023.549 1029.894 1020.543 1022.143 1023.375 1021.397 1033.266 1023.249 1019.395 1020.989 1017.955 1033.505 1021.362 1022.723 1017.494 1017.503 1020.285 1017.481 1021.051 1017.882 1016.896 1019.139 1020.684 1019.427 1025.592 1020.027 1022.226 1028.959 1024.468 1032.125 1024.806 1026.203 1029.158 1025.160 1028.411 1027.334 1026.763 1032.650 1028.864 1028.649 1031.397 1028.677 1030.349 1027.383 1026.722 1034.920 1024.592 1024.256 1026.631 1034.722 1030.434 1026.416 1031.159 1031.248 1027.739 
DATE 2015:208:19:25:15 obsn  17 az 243 el 51 freq_MHz  1421.5000 Tsys 171.900 Tant 923.690 vlsr    9.58 glat 29.382 glon 205.200 source Sun 
Fstart 1420.497 fstop 1422.503 spacing 0.009375 bw    2.400 fbw    2.000 MHz nfreq 256 nsam 1048576 npoint 214 integ    42 sigma    0.275 bsw 0
Spectrum 
 990.426 1005.551 1007.428 1008.139 1008.464 1014.340 1010.011 1006.444 1006.336 1005.544 1005.783 1006.374 1010.541 1008.294 1009.865 1010.141 1018.811 1016.232 1012.647 1017.863 1013.165 1015.418 1016.346 1009.558 1014.065 1010.062 1011.403 1014.969 1007.388 1008.512 1006.486 1004.935 1011.183 1006.269 1006.537 1005.909 1002.162 1006.438 1026.095 1007.227 1012.336 1006.886 1013.880 1004.169 1006.093 1011.209 1006.587 1013.092 1013.018 1010.879 1006.765 1009.498 1010.070 1013.376 1011.881 1010.428 1014.200 1015.938 1012.660 1010.289 1010.607 1010.362 1010.886 1018.115 1012.036 1013.966 1026.119 1011.412 1010.067 1011.487 1009.471 1012.337 1008.326 1012.273 1010.178 1008.555 1010.618 1010.476 1017.934 1011.141 1013.599 1012.352 1010.911 1023.043 1011.007 1015.095 1018.500 1012.188 1023.970 1014.260 1012.359 1012.677 1015.189 1018.861 1020.076 1011.005 1014.044 1013.519 1014.629 1016.327 1014.380 1015.062 1017.775 1013.370 1016.705 1013.647 1018.107 1012.100 1014.723 1022.802 1014.553 1012.626 1015.448 1014.774 1016.555 1015.010 1015.062 1013.750 1018.758 1019.489 1015.178 1019.460 1021.301 1016.697 1024.826 1017.917 1014.979 1013.201 1015.929 1017.324 1016.697 1015.338 1016.184 1014.617 1024.794 1020.363 1015.156 1017.475 1018.747 1020.744 1019.035 1013.763 1018.740 1017.398 1018.050 1025.049 1021.304 1019.468 1020.127 1024.200 1026.512 1018.638 1023.994 1020.260 1022.733 1035.685 1021.229 1021.433 1025.900 1027.457 1034.158 1024.354 1025.679 1026.594 1024.783 1036.919 1026.599 1023.073 1024.861 1021.456 1036.849 1024.983 1026.921 1020.988 1021.819 1023.732 1021.837 1024.580 1020.706 1019.782 1022.519 1024.473 1023.081 1028.771 1023.340 1025.418 1032.676 1028.123 1035.739 1028.224 1029.946 1032.438 1028.862 1031.944 1031.057 1029.830 1036.304 1032.674 1033.308 1035.169 1031.452 1033.392 1030.262 1030.141 1038.932 1028.068 1027.172 1030.092 1037.588 1033.955 1029.373 1034.691 1034.495 1031.545 
DATE 2015:208:19:25:29 obsn  18 az 243 el 51 freq_MHz  1421.5000 Tsys 171.900 Tant 921.690 vlsr    9.58 glat 29.382 glon 205.200 source Sun 
Fstart 1420.497 fstop 1422.503 spacing 0.009375 bw    2.400 fbw    2.000 MHz nfreq 256 nsam 1048576 npoint 214 integ    44 sigma    0.268 bsw 0
Spectrum 
 994.371 1009.425 1011.018 1011.979 1012.660 1017.906 1014.085 1010.470 1009.207 1009.560 1009.435 1009.940 1013.922 1012.339 1013.142 1014.304 1022.513 1019.574 1016.041 1021.107 1017.390 1019.192 1019.664 1013.682 1017.436 1013.695 1015.632 1018.714 1011.011 1012.313 1010.652 1008.465 1015.286 1009.228 1009.626 1009.471 1006.199 1010.186 1029.495 1010.755 1016.170 1011.327 1018.164 1008.069 1010.107 1015.262 1010.138 1016.888 1017.444 1014.536 1010.748 1013.312 1014.696 1017.298 1016.654 1014.797 1018.258 1020.248 1016.183 1013.637 1014.996 1015.022 1015.173 1023.097 1016.193 1017.430 1029.700 1015.641 1014.296 1015.512 1013.728 1015.876 1013.155 1015.905 1014.131 1012.606 1014.792 1014.664 1021.962 1014.744 1017.401 1015.677 1015.048 1026.767 1015.024 1018.739 1022.285 1016.227 1028.066 1018.487 1016.565 1017.215 1019.020 1022.959 1023.563 1015.248 1018.450 1017.441 1019.022 1020.392 1018.641 1019.910 1021.533 1017.279 1020.407 1017.729 1022.148 1015.608 1019.068 1027.429 1018.517 1016.864 1019.147 1018.508 1021.056 1018.811 1018.995 1017.888 1023.078 1023.233 1019.017 1023.570 1025.412 1020.708 1029.123 1022.357 1019.344 1017.447 1019.531 1021.487 1020.648 1018.837 1020.351 1018.620 1028.987 1024.646 1018.646 1021.981 1022.900 1024.278 1022.996 1017.543 1023.429 1021.163 1020.992 1028.870 1025.020 1023.218 1024.313 1027.868 1030.603 1022.567 1028.584 1024.624 1026.577 1039.416 1024.910 1024.926 1029.692 1031.210 1038.663 1028.100 1029.411 1030.659 1028.541 1041.387 1030.040 1026.901 1029.045 1025.146 1041.131 1029.042 1030.511 1025.455 1025.206 1027.363 1025.935 1029.237 1025.257 1023.459 1026.247 1028.201 1026.955 1032.415 1027.070 1028.937 1037.095 1031.783 1039.532 1032.246 1033.417 1036.925 1032.374 1035.597 1035.090 1033.504 1040.497 1036.686 1037.904 1039.041 1035.296 1037.205 1034.036 1034.515 1043.051 1031.594 1031.025 1033.258 1041.033 1038.472 1033.367 1038.502 1038.449 1035.300 
DATE 2015:208:19:25:42 obsn  19 az 243 el 51 freq_MHz  1421.5000 Tsys 171.900 Tant 914.070 vlsr    9.58 glat 29.383 glon 205.200 source Sun 
Fstart 1420.497 fstop 1422.503 spacing 0.009375 bw    2.400 fbw    2.000 MHz nfreq 256 nsam 1048576 npoint 214 integ    46 sigma    0.261 bsw 0
Spectrum 
 997.585 1013.003 1014.239 1015.498 1016.089 1021.412 1017.308 1013.321 1012.318 1013.366 1012.905 1013.569 1017.711 1015.639 1016.081 1018.295 1025.521 1022.813 1019.838 1024.122 1021.106 1022.478 1022.570 1017.347 1020.807 1016.644 1018.962 1021.429 1013.803 1016.054 1014.124 1011.865 1018.878 1012.182 1012.597 1012.844 1009.834 1013.762 1032.816 1014.573 1019.044 1014.508 1022.156 1011.555 1013.477 1018.674 1014.156 1019.937 1019.926 1017.909 1014.782 1017.033 1018.460 1020.544 1020.557 1018.502 1021.305 1023.829 1019.289 1017.499 1018.203 1018.481 1019.090 1026.438 1020.004 1021.602 1033.523 1018.825 1017.041 1019.203 1017.872 1019.239 1016.337 1018.911 1018.037 1016.509 1018.669 1018.468 1025.869 1018.048 1021.307 1019.815 1018.673 1030.776 1019.032 1022.231 1025.177 1019.343 1031.033 1021.823 1020.306 1021.002 1022.111 1026.092 1027.157 1019.374 1022.585 1020.363 1022.053 1024.463 1022.114 1024.034 1025.116 1020.924 1023.640 1021.275 1025.926 1018.674 1021.829 1030.946 1021.612 1020.862 1022.383 1021.815 1024.268 1021.671 1022.254 1021.756 1026.473 1026.923 1022.168 1027.020 1028.914 1024.065 1032.593 1026.216 1023.321 1021.620 1022.965 1025.203 1024.569 1022.922 1023.848 1022.155 1032.692 1028.355 1022.610 1024.805 1026.199 1027.981 1027.048 1021.740 1027.305 1025.094 1024.002 1032.525 1028.840 1026.798 1027.861 1031.175 1034.474 1026.114 1032.495 1029.380 1030.546 1043.422 1027.943 1028.556 1033.314 1034.602 1042.054 1031.392 1033.559 1034.464 1031.234 1045.355 1033.988 1030.435 1032.783 1028.518 1044.373 1032.526 1034.154 1028.700 1028.480 1031.197 1029.787 1033.389 1029.392 1027.076 1029.611 1031.834 1030.888 1035.352 1029.654 1032.141 1040.842 1035.455 1043.159 1034.901 1036.370 1040.231 1035.874 1039.205 1039.355 1037.610 1044.047 1039.834 1041.210 1041.929 1038.740 1040.507 1037.648 1037.561 1046.948 1035.123 1034.025 1036.459 1045.356 1042.758 1036.986 1042.058 1041.513 1038.179 
DATE 2015:208:19:25:55 obsn  20 az 243 el 51 freq_MHz  1421.5000 Tsys 171.900 Tant 941.021 vlsr    9.58 glat 29.383 glon 205.200 source Sun 
Fstart 1420.497 fstop 1422.503 spacing 0.009375 bw    2.400 fbw    2.000 MHz nfreq 256 nsam 1048576 npoint 214 integ    48 sigma    0.256 bsw 0
Spectrum 
1001.411 1016.217 1018.189 1018.895 1018.962 1025.579 1020.375 1017.067 1015.700 1016.929 1016.910 1016.693 1021.029 1018.322 1019.273 1021.636 1028.788 1026.314 1023.110 1027.624 1024.271 1025.610 1025.741 1020.873 1024.823 1020.504 1022.921 1023.573 1017.565 1019.455 1017.191 1015.256 1022.396 1015.816 1016.224 1016.917 1014.130 1017.286 1036.045 1017.927 1022.363 1017.548 1025.953 1015.738 1016.679 1021.996 1017.668 1024.408 1023.340 1021.410 1018.469 1020.925 1021.950 1024.552 1024.086 1021.695 1024.565 1027.969 1022.986 1021.323 1021.827 1021.790 1022.645 1030.637 1023.114 1024.747 1037.006 1022.243 1020.616 1022.866 1021.211 1022.250 1020.367 1022.572 1021.389 1019.686 1022.025 1022.139 1029.433 1021.522 1024.944 1023.411 1022.583 1034.496 1022.776 1025.798 1029.485 1022.740 1034.795 1025.174 1023.367 1024.937 1025.864 1029.800 1030.533 1022.924 1026.291 1024.456 1025.299 1028.592 1025.711 1027.455 1028.795 1024.422 1027.686 1025.228 1029.736 1022.774 1025.568 1034.592 1026.072 1024.878 1025.931 1024.982 1028.089 1025.512 1026.134 1025.115 1030.302 1030.475 1025.621 1030.616 1032.785 1027.335 1036.244 1029.534 1026.688 1025.877 1026.548 1029.058 1028.272 1026.154 1027.616 1026.139 1036.716 1031.495 1026.108 1028.282 1029.619 1031.298 1030.976 1025.727 1031.344 1029.079 1027.945 1036.203 1032.676 1030.281 1031.896 1034.424 1037.810 1030.213 1035.926 1032.674 1034.600 1046.343 1031.334 1032.558 1036.973 1038.158 1045.861 1035.543 1036.746 1037.190 1034.560 1048.628 1038.357 1033.133 1036.018 1032.243 1048.240 1035.671 1037.869 1031.787 1031.651 1034.465 1033.236 1037.135 1032.871 1030.375 1032.573 1035.488 1035.021 1039.276 1034.086 1035.966 1044.738 1039.009 1046.891 1038.068 1040.211 1043.221 1040.021 1042.880 1042.783 1041.188 1047.661 1043.327 1044.656 1045.276 1041.680 1044.264 1041.481 1041.024 1050.939 1039.025 1037.208 1040.280 1048.893 1046.083 1040.656 1045.596 1044.968 1041.709 
DATE 2015:208:19:26:08 obsn  21 az 243 el 51 freq_MHz  1421.5000 Tsys 171.900 Tant 936.511 vlsr    9.58 glat 29.383 glon 205.200 source Sun 
Fstart 1420.497 fstop 1422.503 spacing 0.009375 bw    2.400 fbw    2.000 MHz nfreq 256 nsam 1048576 npoint 214 integ    50 sigma    0.250 bsw 0
Spectrum 
1004.098 1020.058 1021.639 1022.245 1022.871 1029.233 1023.639 1020.241 1019.862 1020.372 1020.471 1019.814 1024.811 1021.325 1022.683 1025.241 1032.077 1029.354 1027.035 1031.286 1027.441 1029.188 1028.524 1024.394 1028.264 1023.978 1025.965 1026.756 1020.800 1022.741 1020.965 1018.767 1026.134 1019.212 1019.787 1020.618 1017.322 1020.313 1039.812 1021.919 1026.068 1021.419 1029.692 1018.709 1020.503 1025.655 1020.972 1027.667 1026.517 1024.259 1022.370 1024.141 1026.298 1028.255 1027.203 1025.001 1028.404 1031.507 1026.613 1024.849 1025.527 1024.869 1025.833 1034.129 1026.847 1028.949 1040.242 1025.905 1023.763 1026.386 1024.305 1025.447 1024.167 1026.519 1024.935 1023.365 1025.504 1025.530 1033.075 1025.081 1028.577 1027.214 1026.724 1037.861 1026.480 1029.441 1032.922 1025.957 1038.735 1028.203 1027.101 1028.351 1029.461 1034.065 1034.352 1026.542 1029.994 1028.141 1029.406 1031.783 1029.673 1031.266 1032.569 1028.216 1031.138 1028.347 1033.288 1025.968 1029.287 1038.342 1029.673 1028.698 1029.797 1028.247 1031.491 1028.740 1029.787 1028.369 1033.641 1033.631 1029.590 1033.977 1036.420 1031.499 1039.644 1032.385 1030.337 1029.671 1030.155 1032.481 1031.451 1029.874 1031.034 1030.048 1040.346 1035.032 1029.977 1031.545 1033.000 1034.797 1034.461 1029.948 1034.587 1032.921 1031.522 1040.253 1036.675 1033.889 1035.736 1038.541 1041.648 1034.109 1039.233 1036.247 1038.012 1049.678 1034.836 1036.714 1040.792 1041.320 1049.451 1039.770 1039.818 1040.543 1038.007 1051.953 1041.680 1036.959 1039.191 1035.321 1051.592 1039.062 1040.744 1035.188 1034.801 1037.549 1036.643 1040.407 1036.892 1033.609 1036.697 1039.571 1038.789 1042.902 1037.161 1039.188 1048.116 1041.911 1050.768 1041.271 1043.731 1046.230 1043.237 1046.772 1046.282 1045.266 1050.713 1047.011 1048.375 1048.371 1044.562 1048.136 1044.720 1044.509 1055.148 1042.388 1040.688 1043.684 1052.066 1049.772 1043.596 1048.991 1048.577 1045.464 
DATE 2015:208:19:26:23 obsn  22 az 244 el 51 freq_MHz  1421.5000 Tsys 171.900 Tant 874.491 vlsr    9.58 glat 29.383 glon 205.200 source Sun 
Fstart 1420.497 fstop 1422.503 spacing 0.009375 bw    2.400 fbw    2.000 MHz nfreq 256 nsam 1048576 npoint 214 integ    53 sigma    0.245 bsw 0
Spectrum 
1004.676 1020.679 1022.355 1023.165 1023.842 1030.053 1024.219 1020.946 1020.747 1020.582 1021.133 1020.421 1026.010 1022.171 1023.393 1025.634 1032.193 1029.940 1027.585 1032.280 1028.061 1029.771 1028.675 1025.048 1028.619 1024.416 1026.071 1027.819 1020.942 1023.537 1021.900 1019.352 1027.015 1020.522 1020.249 1021.126 1017.906 1021.072 1040.502 1021.625 1026.060 1021.714 1030.260 1019.471 1021.325 1026.315 1021.207 1028.575 1027.519 1024.600 1022.855 1024.974 1026.826 1029.168 1027.763 1025.435 1029.354 1031.716 1027.400 1025.554 1026.518 1025.658 1026.208 1034.606 1027.860 1029.442 1040.908 1026.376 1024.729 1027.482 1024.787 1025.843 1024.404 1027.061 1025.350 1023.607 1026.176 1026.399 1034.112 1025.953 1029.091 1027.878 1026.804 1038.878 1027.198 1029.842 1033.542 1026.284 1039.599 1028.930 1027.655 1028.439 1030.280 1035.130 1035.311 1027.601 1031.241 1029.051 1030.306 1032.817 1030.483 1031.917 1032.902 1029.515 1032.178 1029.685 1033.988 1027.158 1030.349 1038.958 1030.614 1029.631 1030.962 1028.674 1032.366 1029.430 1030.094 1029.098 1034.242 1034.918 1029.973 1034.435 1036.997 1032.252 1040.565 1033.042 1031.123 1030.051 1030.529 1033.591 1031.704 1030.669 1031.348 1030.644 1040.793 1035.311 1030.635 1031.992 1033.188 1035.173 1035.532 1031.094 1035.383 1033.403 1031.669 1041.258 1036.635 1034.643 1036.458 1039.888 1042.090 1034.456 1039.783 1036.678 1038.264 1050.831 1035.406 1037.337 1041.758 1041.847 1050.280 1040.309 1040.501 1040.648 1039.321 1052.720 1042.266 1037.290 1039.657 1035.812 1052.161 1039.932 1041.356 1035.835 1035.506 1038.376 1036.977 1041.111 1037.983 1034.435 1037.682 1040.314 1039.089 1043.244 1037.888 1040.176 1048.464 1042.544 1051.008 1041.828 1043.947 1046.732 1044.394 1047.140 1046.386 1045.649 1051.265 1047.175 1049.527 1048.780 1044.795 1048.569 1044.774 1044.296 1055.736 1042.672 1041.356 1044.259 1052.761 1051.228 1043.906 1049.694 1048.956 1046.405 
DATE 2015:208:19:26:37 obsn  23 az 244 el 51 freq_MHz  1421.5000 Tsys 171.900 Tant 895.725 vlsr    9.58 glat 29.383 glon 205.200 source Sun 
Fstart 1420.497 fstop 1422.503 spacing 0.009375 bw    2.400 fbw    2.000 MHz nfreq 256 nsam 1048576 npoint 214 integ    55 sigma    0.240 bsw 0
Spectrum 
1006.372 1021.934 1023.638 1024.053 1025.111 1030.940 1025.335 1021.555 1021.683 1021.775 1021.944 1021.762 1027.024 1023.098 1024.562 1027.345 1033.326 1030.902 1028.452 1033.648 1029.230 1031.228 1030.143 1026.385 1029.913 1025.715 1027.433 1028.659 1021.625 1025.177 1023.222 1020.617 1028.257 1021.881 1021.129 1022.844 1019.585 1022.104 1041.745 1022.923 1027.326 1022.821 1031.638 1021.024 1022.331 1027.988 1022.531 1029.325 1028.929 1026.012 1025.021 1026.295 1027.855 1030.236 1029.349 1027.003 1030.500 1033.026 1028.868 1027.211 1027.844 1026.662 1026.959 1035.903 1028.767 1029.945 1041.952 1027.893 1026.176 1029.087 1025.734 1027.073 1025.503 1028.327 1026.384 1024.985 1027.505 1027.632 1035.264 1027.136 1029.615 1029.243 1028.106 1040.562 1028.629 1030.905 1034.214 1027.869 1041.287 1030.435 1029.371 1029.393 1031.985 1036.824 1036.548 1029.292 1032.553 1030.320 1031.493 1033.913 1032.025 1033.353 1033.703 1030.735 1033.177 1030.865 1035.411 1028.521 1031.530 1040.303 1031.578 1030.890 1032.406 1029.836 1033.417 1030.442 1031.389 1030.305 1035.778 1036.182 1030.915 1035.261 1038.175 1033.336 1041.636 1033.610 1032.263 1031.544 1031.632 1035.009 1033.353 1031.776 1032.905 1031.851 1042.078 1036.762 1031.260 1032.830 1034.750 1036.167 1036.628 1032.273 1036.056 1034.609 1032.414 1042.240 1037.542 1035.425 1037.642 1040.807 1043.667 1035.512 1040.755 1037.899 1039.430 1051.870 1036.969 1038.791 1042.765 1042.738 1051.115 1041.244 1041.507 1042.142 1040.620 1053.951 1043.196 1038.179 1040.742 1037.067 1053.113 1040.740 1042.470 1037.158 1036.172 1039.823 1038.067 1041.859 1039.186 1035.612 1038.756 1041.615 1040.011 1044.474 1038.603 1041.367 1050.285 1042.929 1051.916 1042.866 1044.865 1047.550 1045.042 1048.120 1047.987 1046.881 1052.155 1048.233 1050.084 1049.862 1046.209 1049.949 1045.507 1045.470 1056.957 1043.775 1042.180 1045.051 1053.851 1052.283 1044.770 1050.773 1049.829 1047.527 
DATE 2015:208:19:26:50 obsn  24 az 244 el 51 freq_MHz  1421.5000 Tsys 171.900 Tant 906.879 vlsr    9.58 glat 29.383 glon 205.200 source Sun 
Fstart 1420.497 fstop 1422.503 spacing 0.009375 bw    2.400 fbw    2.000 MHz nfreq 256 nsam 1048576 npoint 214 integ    57 sigma    0.235 bsw 0
Spectrum 
1007.427 1023.556 1025.000 1025.845 1026.633 1032.060 1026.776 1022.681 1023.173 1023.041 1023.641 1023.046 1028.564 1024.348 1026.407 1028.868 1034.457 1032.463 1029.788 1034.947 1030.440 1032.780 1030.902 1027.728 1031.281 1026.769 1029.121 1030.290 1023.133 1026.649 1024.483 1022.025 1029.663 1023.295 1022.224 1023.907 1021.420 1023.304 1042.991 1024.297 1028.668 1023.987 1033.190 1022.317 1023.909 1029.798 1024.236 1030.476 1030.345 1026.702 1026.662 1027.344 1028.880 1031.598 1030.764 1028.215 1031.881 1034.397 1030.366 1028.898 1028.790 1027.896 1028.406 1037.433 1030.195 1031.229 1043.415 1029.758 1027.343 1030.290 1026.906 1028.580 1026.503 1030.524 1028.083 1026.754 1029.767 1029.009 1036.941 1028.483 1031.053 1030.533 1029.468 1042.507 1029.488 1032.549 1035.869 1029.183 1042.754 1031.852 1031.227 1030.393 1033.164 1038.042 1038.315 1031.042 1034.043 1031.518 1032.823 1035.271 1033.731 1034.867 1034.952 1032.395 1034.262 1032.386 1037.283 1029.792 1033.232 1041.992 1033.281 1032.729 1033.911 1031.281 1034.578 1032.080 1032.421 1031.972 1037.336 1037.753 1032.453 1036.621 1039.281 1034.478 1043.007 1034.818 1033.629 1032.760 1032.874 1036.630 1034.259 1033.140 1034.350 1033.615 1043.922 1038.252 1033.230 1034.091 1036.150 1037.646 1037.664 1033.428 1037.382 1036.139 1033.835 1043.932 1039.475 1036.841 1039.116 1041.711 1045.091 1037.026 1041.964 1039.426 1040.529 1052.965 1038.451 1040.004 1043.905 1044.084 1052.244 1042.292 1043.077 1043.539 1041.839 1055.454 1044.387 1040.015 1042.343 1038.597 1055.031 1042.201 1043.959 1038.547 1037.506 1040.952 1039.333 1042.883 1040.209 1037.463 1040.672 1043.168 1041.057 1045.320 1040.374 1042.299 1051.543 1044.337 1053.688 1044.146 1046.139 1048.824 1046.398 1049.453 1049.038 1048.435 1053.662 1049.247 1051.280 1051.458 1047.701 1051.595 1046.864 1046.647 1058.290 1045.375 1043.373 1046.435 1055.749 1053.679 1046.574 1051.963 1051.180 1048.653 
DATE 2015:208:19:27:03 obsn  25 az 244 el 51 freq_MHz  1421.5000 Tsys 171.900 Tant 905.474 vlsr    9.58 glat 29.383 glon 205.200 source Sun 
Fstart 1420.497 fstop 1422.503 spacing 0.009375 bw    2.400 fbw    2.000 MHz nfreq 256 nsam 1048576 npoint 214 integ    59 sigma    0.231 bsw 0
Spectrum 
1009.138 1025.059 1026.691 1027.265 1027.941 1033.378 1028.183 1023.794 1024.204 1024.177 1024.853 1024.319 1030.174 1025.837 1028.304 1030.208 1036.030 1033.690 1031.168 1036.185 1031.923 1034.299 1032.308 1029.152 1032.966 1028.337 1030.504 1031.708 1024.691 1028.281 1025.536 1023.707 1030.847 1025.226 1023.936 1025.352 1022.966 1025.026 1044.814 1025.691 1030.093 1025.384 1034.747 1023.576 1025.843 1030.732 1025.704 1031.894 1031.753 1028.432 1027.876 1028.799 1030.625 1033.449 1031.948 1029.841 1033.276 1036.235 1031.508 1030.533 1030.263 1029.305 1030.139 1038.547 1031.269 1033.120 1044.922 1031.287 1029.111 1031.672 1028.577 1029.645 1028.341 1032.019 1029.424 1027.918 1031.237 1030.469 1038.447 1029.808 1032.257 1032.716 1030.702 1044.103 1031.258 1033.848 1037.715 1030.330 1044.328 1033.388 1032.851 1032.004 1034.708 1039.584 1040.102 1032.692 1035.337 1033.001 1034.570 1036.490 1035.527 1036.548 1036.483 1034.039 1035.711 1033.997 1038.826 1031.803 1035.018 1043.230 1034.425 1034.408 1035.653 1032.899 1035.796 1033.256 1033.685 1033.594 1038.619 1039.230 1034.285 1038.467 1040.868 1035.212 1044.226 1035.931 1034.779 1034.117 1033.966 1038.316 1035.337 1034.461 1036.026 1034.554 1045.563 1040.191 1034.465 1036.023 1037.721 1039.575 1039.889 1034.958 1038.554 1037.525 1035.485 1045.096 1040.686 1037.941 1041.178 1042.988 1046.167 1038.052 1043.543 1040.892 1042.048 1054.847 1039.909 1041.270 1045.215 1045.204 1053.639 1043.473 1044.809 1045.526 1043.905 1056.768 1045.966 1041.219 1044.089 1039.957 1056.828 1043.035 1045.998 1040.398 1039.469 1042.571 1041.051 1043.997 1041.344 1038.911 1041.845 1044.268 1041.883 1046.534 1041.561 1043.726 1052.777 1045.294 1055.155 1045.138 1047.701 1049.774 1047.944 1050.798 1050.233 1049.951 1055.208 1050.743 1052.612 1052.672 1048.742 1052.943 1048.157 1047.873 1059.568 1046.930 1045.030 1047.676 1056.625 1055.127 1048.150 1053.490 1052.785 1050.064 
DATE 2015:208:19:27:16 obsn  26 az 244 el 51 freq_MHz  1421.5000 Tsys 171.900 Tant 917.352 vlsr    9.58 glat 29.383 glon 205.200 source Sun 
Fstart 1420.497 fstop 1422.503 spacing 0.009375 bw    2.400 fbw    2.000 MHz nfreq 256 nsam 1048576 npoint 214 integ    61 sigma    0.227 bsw 0
Spectrum 
1010.632 1026.478 1028.255 1029.121 1029.411 1034.843 1029.706 1025.391 1025.855 1025.632 1026.898 1025.289 1031.626 1026.857 1029.093 1031.646 1037.486 1035.236 1032.674 1037.674 1033.473 1036.151 1034.091 1030.492 1034.011 1029.718 1031.981 1033.458 1026.570 1029.955 1027.289 1025.205 1032.437 1026.855 1025.260 1026.682 1023.901 1027.067 1046.030 1026.954 1031.539 1026.844 1036.456 1025.164 1027.265 1032.594 1027.406 1033.057 1033.094 1030.200 1029.125 1030.529 1032.133 1035.786 1034.161 1031.517 1034.715 1037.816 1032.758 1032.110 1031.844 1031.012 1031.305 1039.734 1033.126 1034.523 1046.178 1033.071 1030.818 1032.981 1029.951 1030.814 1030.049 1034.100 1031.452 1029.747 1032.229 1032.186 1039.951 1031.448 1034.172 1034.462 1031.917 1045.655 1032.629 1035.048 1039.495 1031.708 1045.829 1034.891 1034.579 1033.375 1036.660 1041.192 1042.189 1034.327 1037.059 1034.408 1036.075 1037.987 1037.326 1037.922 1038.436 1035.783 1036.780 1035.361 1040.742 1033.559 1037.019 1045.172 1035.884 1036.062 1037.073 1034.322 1037.261 1035.130 1035.069 1035.006 1039.852 1040.594 1035.532 1040.480 1042.750 1036.506 1045.880 1037.182 1036.118 1035.927 1035.388 1039.892 1037.045 1036.004 1037.728 1036.243 1046.826 1041.828 1036.017 1037.559 1039.257 1041.242 1041.468 1036.516 1039.840 1039.053 1037.074 1046.767 1042.038 1039.512 1042.963 1044.658 1047.809 1039.670 1045.456 1042.340 1043.574 1056.855 1041.678 1043.632 1046.747 1046.802 1054.918 1045.244 1046.273 1047.057 1045.553 1058.144 1047.194 1042.607 1044.911 1041.421 1058.189 1044.473 1047.363 1041.792 1040.975 1044.223 1042.233 1045.141 1042.820 1040.062 1043.114 1045.647 1043.762 1048.099 1043.409 1044.994 1054.474 1046.604 1056.538 1046.940 1048.884 1051.535 1049.561 1052.154 1052.391 1051.808 1056.877 1052.631 1054.099 1054.462 1050.517 1054.482 1049.727 1049.084 1061.020 1048.041 1046.985 1049.120 1057.945 1056.182 1049.859 1054.633 1054.499 1051.373 
DATE 2015:208:19:27:30 obsn  27 az 244 el 51 freq_MHz  1421.5000 Tsys 171.900 Tant 922.896 vlsr    9.58 glat 29.384 glon 205.201 source Sun 
Fstart 1420.497 fstop 1422.503 spacing 0.009375 bw    2.400 fbw    2.000 MHz nfreq 256 nsam 1048576 npoint 214 integ    64 sigma    0.223 bsw 0
Spectrum 
1012.455 1028.409 1029.175 1030.211 1030.723 1036.564 1031.137 1027.129 1027.691 1027.609 1028.429 1026.667 1033.114 1028.223 1030.637 1033.119 1039.144 1036.588 1034.545 1039.590 1035.011 1037.573 1035.956 1031.875 1035.778 1031.676 1033.247 1035.319 1028.073 1031.624 1028.811 1026.734 1034.009 1028.227 1026.420 1027.998 1025.536 1029.048 1047.728 1028.584 1033.630 1028.680 1038.099 1026.986 1028.657 1034.015 1029.255 1034.923 1034.666 1031.699 1030.859 1032.532 1033.875 1037.433 1035.871 1033.718 1036.122 1039.575 1034.080 1033.644 1033.142 1032.652 1033.253 1041.435 1034.821 1035.760 1048.110 1034.974 1032.223 1034.003 1031.516 1032.387 1031.765 1035.691 1032.989 1031.304 1033.814 1033.704 1041.482 1033.364 1035.790 1035.823 1033.416 1047.494 1034.452 1036.868 1041.208 1033.272 1047.524 1036.504 1036.179 1035.047 1038.221 1042.998 1043.922 1035.969 1038.640 1036.053 1037.287 1039.710 1038.881 1039.779 1039.728 1037.315 1038.387 1036.771 1042.498 1035.275 1038.730 1047.259 1037.692 1037.518 1038.730 1036.604 1039.017 1036.851 1036.059 1036.391 1041.519 1042.404 1036.449 1041.535 1044.785 1038.221 1047.505 1038.884 1037.472 1037.316 1037.211 1041.519 1038.487 1037.511 1039.701 1037.780 1048.517 1043.233 1037.415 1038.964 1040.473 1042.562 1043.443 1038.396 1041.187 1040.706 1038.931 1048.331 1043.438 1041.191 1044.650 1046.242 1049.863 1041.103 1046.738 1043.592 1045.474 1058.688 1043.298 1045.132 1048.507 1048.801 1056.491 1046.485 1047.587 1048.437 1047.171 1059.863 1048.769 1044.514 1046.953 1042.835 1059.924 1045.694 1048.487 1043.415 1042.670 1045.597 1044.175 1046.720 1044.384 1041.948 1044.869 1047.195 1045.104 1049.077 1044.795 1046.351 1056.137 1047.844 1058.317 1048.444 1050.584 1053.295 1050.979 1053.875 1054.271 1053.199 1058.617 1054.501 1055.799 1056.109 1052.127 1056.552 1051.242 1050.586 1062.195 1049.601 1048.306 1050.743 1059.201 1057.917 1050.895 1056.338 1056.192 1053.119 
DATE 2015:208:19:27:43 obsn  28 az 244 el 51 freq_MHz  1421.5000 Tsys 171.900 Tant 920.726 vlsr    9.58 glat 29.384 glon 205.201 source Sun 
Fstart 1420.497 fstop 1422.503 spacing 0.009375 bw    2.400 fbw    2.000 MHz nfreq 256 nsam 1048576 npoint 214 integ    66 sigma    0.219 bsw 0
Spectrum 
1013.921 1029.868 1030.782 1031.350 1031.927 1038.208 1032.643 1029.006 1028.904 1028.996 1030.472 1028.198 1034.792 1030.146 1032.298 1034.431 1040.400 1038.348 1036.366 1041.316 1036.320 1038.741 1037.546 1033.927 1037.722 1033.775 1034.752 1036.548 1030.073 1032.829 1030.226 1028.727 1035.755 1029.913 1028.216 1029.790 1027.090 1030.801 1049.430 1030.358 1035.030 1030.130 1040.165 1028.934 1030.261 1035.951 1031.025 1036.447 1036.271 1033.323 1032.831 1034.299 1035.657 1038.934 1037.826 1035.514 1037.346 1040.839 1035.847 1035.585 1034.836 1034.323 1035.021 1043.412 1036.588 1037.432 1049.523 1036.836 1033.872 1035.452 1033.174 1034.366 1033.312 1037.295 1034.565 1033.105 1035.066 1035.385 1043.432 1034.992 1037.970 1037.538 1035.517 1049.253 1036.440 1038.774 1042.766 1034.771 1049.567 1037.948 1038.138 1037.064 1039.958 1044.941 1046.193 1037.910 1040.371 1037.808 1039.208 1042.160 1040.643 1041.421 1041.205 1038.697 1040.305 1037.877 1044.327 1037.354 1040.376 1048.681 1039.316 1039.233 1040.147 1038.300 1040.694 1038.763 1038.176 1038.295 1043.520 1043.772 1038.437 1043.274 1046.362 1039.654 1048.845 1040.378 1039.491 1038.402 1038.957 1043.357 1040.363 1039.304 1041.412 1039.359 1050.529 1045.171 1039.142 1040.860 1042.151 1044.284 1044.917 1039.996 1042.920 1042.047 1040.172 1049.624 1044.807 1042.415 1045.980 1047.336 1051.334 1043.082 1048.495 1045.182 1047.196 1059.911 1044.908 1047.118 1049.471 1050.338 1058.306 1048.012 1049.043 1049.935 1048.639 1061.430 1050.207 1045.928 1048.371 1044.562 1061.958 1047.204 1049.825 1045.084 1044.078 1047.220 1045.726 1047.906 1045.977 1043.518 1046.521 1048.773 1047.015 1050.711 1046.170 1047.804 1057.591 1049.556 1059.751 1049.755 1051.953 1055.432 1052.621 1055.651 1055.150 1054.781 1060.506 1055.906 1056.778 1057.399 1053.073 1058.142 1052.789 1052.012 1063.586 1050.820 1049.818 1052.421 1060.745 1059.520 1052.657 1057.910 1058.035 1054.338 
DATE 2015:208:19:27:56 obsn  29 az 244 el 51 freq_MHz  1421.5000 Tsys 171.900 Tant 923.910 vlsr    9.58 glat 29.384 glon 205.201 source Sun 
Fstart 1420.497 fstop 1422.503 spacing 0.009375 bw    2.400 fbw    2.000 MHz nfreq 256 nsam 1048576 npoint 214 integ    68 sigma    0.215 bsw 0
Spectrum 
1015.478 1031.963 1032.188 1033.122 1033.681 1039.931 1034.429 1030.319 1030.507 1030.332 1031.989 1029.829 1036.755 1031.869 1033.839 1035.975 1041.935 1039.469 1038.304 1042.881 1037.939 1040.513 1039.048 1035.664 1039.400 1035.181 1036.596 1038.055 1031.941 1034.079 1032.172 1030.091 1037.660 1031.447 1029.805 1031.385 1028.748 1032.058 1051.005 1031.720 1037.066 1031.873 1041.737 1030.799 1032.360 1037.690 1032.638 1037.481 1037.971 1035.016 1034.451 1036.004 1037.334 1040.986 1039.276 1036.821 1039.072 1042.460 1037.120 1037.206 1036.612 1036.068 1036.208 1044.915 1038.213 1039.195 1051.528 1039.021 1035.708 1036.974 1034.960 1036.166 1035.086 1039.022 1036.397 1035.026 1036.677 1037.370 1045.298 1036.243 1039.617 1039.085 1037.113 1050.957 1037.806 1040.390 1044.423 1036.729 1051.502 1039.602 1039.312 1038.774 1041.680 1046.538 1047.644 1039.797 1042.148 1039.908 1040.927 1043.658 1042.160 1043.015 1042.973 1040.267 1041.967 1039.555 1045.923 1038.735 1041.973 1050.633 1040.767 1041.024 1041.964 1039.638 1042.501 1040.279 1040.023 1039.909 1045.414 1045.473 1040.377 1045.115 1048.384 1041.613 1050.621 1042.142 1040.707 1039.902 1040.511 1044.867 1041.869 1041.157 1043.405 1041.069 1051.908 1046.897 1040.522 1042.465 1043.685 1045.592 1046.608 1041.846 1044.580 1043.858 1042.116 1051.438 1046.302 1044.067 1047.271 1048.612 1052.791 1044.637 1050.032 1046.908 1048.713 1061.571 1046.385 1048.573 1051.265 1051.617 1060.138 1049.734 1050.740 1051.578 1050.274 1062.956 1052.112 1047.514 1049.742 1046.539 1063.586 1048.680 1051.344 1046.748 1045.815 1049.047 1047.287 1049.595 1047.660 1044.693 1048.093 1050.389 1048.261 1052.110 1048.305 1049.438 1058.889 1050.852 1061.515 1051.298 1053.753 1057.130 1054.396 1057.235 1057.042 1056.156 1061.819 1057.313 1058.269 1058.953 1054.828 1059.747 1054.562 1053.260 1065.111 1052.652 1051.516 1053.825 1061.906 1060.890 1054.299 1059.397 1059.357 1055.875 
DATE 2015:208:19:28:09 obsn  30 az 244 el 51 freq_MHz  1421.5000 Tsys 171.900 Tant 924.632 vlsr    9.58 glat 29.384 glon 205.201 source Sun 
Fstart 1420.497 fstop 1422.503 spacing 0.009375 bw    2.400 fbw    2.000 MHz nfreq 256 nsam 1048576 npoint 214 integ    70 sigma    0.212 bsw 0
Spectrum 
1017.093 1033.911 1034.108 1034.932 1035.372 1041.495 1035.827 1032.432 1032.492 1032.218 1033.614 1031.781 1038.616 1034.185 1035.727 1037.776 1043.745 1041.128 1039.981 1044.208 1039.519 1042.573 1040.820 1037.522 1041.074 1036.727 1038.241 1040.249 1033.624 1035.742 1033.968 1032.238 1039.225 1033.220 1031.363 1032.946 1030.475 1033.754 1052.812 1033.241 1038.714 1033.441 1043.097 1032.449 1034.116 1039.389 1034.486 1038.998 1039.938 1036.915 1036.207 1037.587 1038.970 1042.932 1040.862 1038.853 1040.494 1044.294 1039.208 1039.008 1038.193 1037.967 1038.037 1046.972 1039.797 1040.783 1053.610 1041.014 1037.709 1038.610 1036.781 1038.152 1036.809 1040.757 1037.979 1036.253 1038.333 1038.854 1047.025 1037.594 1040.987 1040.920 1039.408 1052.714 1039.414 1042.104 1045.947 1038.668 1053.193 1041.277 1040.985 1040.344 1043.625 1048.308 1049.475 1041.452 1043.526 1041.986 1042.644 1045.524 1044.220 1044.303 1044.631 1041.641 1043.692 1041.308 1047.801 1040.279 1043.488 1052.287 1042.309 1042.604 1043.043 1041.586 1044.593 1041.931 1041.477 1041.418 1047.157 1047.040 1042.121 1046.662 1050.800 1043.152 1052.413 1043.551 1042.657 1041.978 1042.451 1046.774 1043.229 1042.974 1045.188 1042.815 1053.922 1048.649 1042.214 1044.217 1045.309 1046.929 1048.428 1043.568 1046.724 1045.711 1043.831 1053.162 1048.169 1046.101 1048.811 1050.306 1054.601 1046.176 1051.567 1048.615 1050.451 1063.019 1048.136 1050.031 1052.705 1053.391 1061.725 1051.175 1052.166 1053.442 1052.096 1064.647 1053.674 1049.060 1051.268 1048.514 1065.170 1050.222 1052.852 1048.765 1047.897 1050.408 1048.938 1051.554 1049.420 1046.459 1049.874 1051.923 1049.988 1053.337 1049.983 1051.089 1060.346 1052.521 1063.279 1052.864 1055.001 1058.633 1056.410 1059.152 1058.722 1057.829 1063.588 1059.202 1059.508 1060.724 1056.232 1061.299 1056.554 1054.797 1066.763 1053.954 1053.531 1055.095 1063.734 1062.606 1056.177 1060.808 1060.891 1057.749 
DATE 2015:208:19:28:22 obsn  31 az 244 el 51 freq_MHz  1421.5000 Tsys 171.900 Tant 934.963 vlsr    9.58 glat 29.384 glon 205.201 source Sun 
Fstart 1420.497 fstop 1422.503 spacing 0.009375 bw    2.400 fbw    2.000 MHz nfreq 256 nsam 1048576 npoint 214 integ    72 sigma    0.209 bsw 0
Spectrum 
1018.624 1035.391 1036.053 1036.879 1036.931 1043.318 1037.361 1034.350 1034.229 1033.932 1035.429 1033.877 1040.610 1036.002 1037.585 1040.055 1045.651 1042.677 1041.798 1046.199 1041.590 1044.507 1042.275 1039.291 1043.290 1038.343 1039.873 1042.070 1035.400 1038.502 1035.358 1034.060 1040.995 1035.150 1032.956 1034.772 1031.899 1035.625 1054.630 1035.071 1040.634 1034.901 1044.960 1034.254 1036.163 1040.719 1036.366 1040.612 1041.888 1038.901 1038.464 1039.390 1040.972 1044.931 1042.816 1040.905 1042.048 1046.104 1041.413 1040.750 1039.666 1040.045 1040.366 1048.660 1041.554 1043.260 1055.453 1042.525 1039.400 1040.340 1038.296 1039.625 1038.615 1042.593 1039.517 1038.048 1040.028 1040.299 1048.863 1039.310 1042.608 1043.108 1040.853 1054.892 1041.095 1043.483 1047.852 1040.447 1055.438 1043.430 1042.908 1042.482 1045.352 1050.102 1051.402 1043.391 1045.565 1044.010 1044.511 1047.079 1045.920 1046.425 1046.505 1043.375 1045.449 1043.120 1049.480 1041.458 1045.340 1054.086 1044.012 1044.322 1045.130 1043.475 1046.637 1043.721 1043.573 1043.344 1049.087 1048.577 1043.812 1048.539 1052.286 1045.026 1054.371 1045.217 1044.624 1044.018 1044.437 1048.917 1044.916 1044.587 1047.074 1044.297 1055.767 1050.508 1043.844 1045.855 1046.586 1048.856 1050.095 1045.376 1048.546 1047.805 1045.838 1055.350 1049.912 1047.769 1050.728 1052.204 1055.996 1048.307 1053.509 1050.646 1052.727 1064.903 1050.022 1051.797 1054.326 1055.169 1063.422 1052.982 1053.694 1055.201 1053.756 1066.610 1055.492 1050.946 1053.011 1049.992 1067.217 1052.110 1054.342 1050.457 1049.831 1051.734 1050.668 1053.481 1051.106 1048.265 1051.638 1053.495 1051.775 1055.098 1051.472 1053.050 1061.737 1054.227 1064.814 1054.209 1056.423 1060.867 1058.100 1060.837 1060.668 1059.393 1065.405 1061.281 1061.335 1062.461 1058.234 1063.076 1058.090 1056.481 1068.292 1055.758 1055.316 1056.819 1065.609 1064.562 1057.933 1062.602 1062.378 1059.121 
DATE 2015:208:19:28:36 obsn  32 az 244 el 51 freq_MHz  1421.5000 Tsys 171.900 Tant 943.816 vlsr    9.58 glat 29.384 glon 205.201 source Sun 
Fstart 1420.497 fstop 1422.503 spacing 0.009375 bw    2.400 fbw    2.000 MHz nfreq 256 nsam 1048576 npoint 214 integ    74 sigma    0.206 bsw 0
Spectrum 
1019.925 1037.101 1037.653 1038.947 1038.978 1044.926 1039.553 1036.755 1036.242 1035.596 1037.313 1035.417 1042.388 1037.850 1039.654 1041.662 1047.069 1044.308 1043.371 1047.811 1043.143 1046.579 1044.077 1040.932 1044.862 1040.543 1041.650 1043.648 1037.133 1040.265 1037.010 1035.267 1042.884 1036.885 1034.874 1036.670 1033.551 1037.169 1056.442 1036.981 1042.655 1036.534 1047.168 1036.193 1037.929 1042.445 1038.243 1042.611 1043.581 1040.523 1040.275 1041.131 1042.824 1046.728 1044.698 1042.769 1043.703 1048.150 1043.816 1042.585 1041.377 1041.575 1041.928 1050.229 1043.315 1045.085 1057.060 1044.655 1041.609 1042.123 1040.351 1041.532 1040.094 1045.046 1041.683 1039.377 1041.572 1041.780 1050.913 1040.968 1044.267 1044.729 1042.581 1056.992 1043.000 1045.252 1049.458 1042.285 1057.456 1045.180 1044.756 1044.533 1046.617 1052.063 1052.737 1045.177 1047.883 1046.084 1046.048 1048.480 1047.199 1048.694 1048.223 1045.472 1046.810 1045.209 1051.387 1043.514 1046.867 1055.923 1045.537 1045.873 1046.949 1045.634 1048.327 1045.939 1045.217 1045.128 1051.003 1050.127 1045.531 1050.331 1054.214 1046.579 1055.840 1047.216 1046.249 1046.145 1046.361 1050.353 1046.864 1046.296 1048.987 1046.100 1057.577 1052.422 1045.490 1047.576 1047.907 1050.297 1051.936 1046.590 1050.455 1050.198 1047.636 1057.214 1051.893 1049.688 1052.614 1054.109 1057.906 1050.197 1055.027 1052.461 1054.455 1066.747 1051.440 1053.793 1056.162 1057.027 1065.210 1054.359 1055.546 1057.033 1055.405 1068.676 1056.890 1052.823 1055.250 1051.857 1069.252 1053.752 1056.164 1051.957 1051.563 1053.489 1052.335 1055.081 1052.899 1050.431 1053.665 1055.323 1053.414 1056.888 1053.106 1054.804 1063.630 1055.708 1066.257 1055.784 1058.328 1062.916 1060.012 1062.372 1062.506 1060.886 1067.140 1062.797 1062.594 1064.375 1060.064 1064.583 1059.889 1058.375 1070.012 1057.410 1057.197 1058.182 1067.612 1066.500 1060.118 1064.096 1063.980 1060.484 
DATE 2015:208:19:28:49 obsn  33 az 244 el 51 freq_MHz  1421.5000 Tsys 171.900 Tant 950.735 vlsr    9.58 glat 29.384 glon 205.201 source Sun 
Fstart 1420.497 fstop 1422.503 spacing 0.009375 bw    2.400 fbw    2.000 MHz nfreq 256 nsam 1048576 npoint 214 integ    77 sigma    0.203 bsw 0
Spectrum 
1021.601 1039.261 1039.269 1041.133 1040.460 1046.444 1041.543 1038.646 1038.186 1037.526 1038.684 1037.454 1044.452 1039.786 1041.460 1043.491 1048.574 1046.089 1045.307 1050.002 1044.725 1048.269 1046.107 1042.576 1046.816 1042.818 1043.453 1045.371 1038.649 1041.980 1038.796 1037.248 1045.014 1038.447 1036.845 1038.554 1035.304 1039.045 1058.511 1038.756 1044.447 1037.776 1049.100 1038.129 1039.511 1043.970 1040.141 1044.547 1045.777 1042.062 1042.791 1043.126 1044.951 1048.453 1046.575 1044.094 1045.589 1049.906 1045.909 1044.525 1043.548 1043.521 1043.308 1052.436 1044.864 1046.749 1058.863 1046.278 1043.729 1044.031 1041.966 1043.386 1042.007 1047.056 1043.510 1041.205 1043.555 1043.376 1052.637 1043.124 1046.153 1046.317 1044.375 1059.173 1044.867 1047.235 1051.238 1043.813 1059.569 1047.085 1046.642 1046.380 1048.597 1053.725 1054.986 1047.182 1050.057 1048.232 1048.076 1050.265 1049.056 1050.081 1049.670 1047.019 1048.985 1047.399 1052.726 1045.472 1048.961 1057.911 1047.059 1047.829 1049.138 1047.621 1050.400 1047.502 1046.727 1047.166 1053.197 1051.948 1047.555 1052.266 1056.011 1048.694 1057.811 1048.869 1048.088 1048.151 1048.188 1052.448 1048.691 1048.037 1050.864 1048.040 1059.706 1054.610 1047.267 1049.574 1049.594 1052.027 1054.072 1048.435 1052.472 1051.751 1049.036 1059.489 1053.283 1051.461 1054.590 1055.972 1059.803 1052.161 1056.928 1054.317 1056.511 1068.827 1053.777 1055.482 1057.780 1058.874 1067.160 1056.096 1057.353 1059.023 1057.331 1070.738 1058.852 1054.422 1056.862 1053.699 1071.458 1055.625 1057.510 1053.904 1053.771 1055.643 1054.251 1056.477 1054.059 1052.365 1055.628 1056.970 1054.818 1058.420 1054.921 1056.715 1065.711 1057.749 1067.943 1057.636 1060.049 1064.285 1061.961 1064.253 1064.300 1062.654 1068.938 1064.163 1064.905 1066.046 1062.034 1066.212 1061.511 1059.772 1071.953 1059.188 1058.774 1059.893 1069.433 1068.081 1061.570 1065.934 1065.329 1061.636 
DATE 2015:208:19:29:02 obsn  34 az 244 el 51 freq_MHz  1421.5000 Tsys 171.900 Tant 945.874 vlsr    9.58 glat 29.384 glon 205.201 source Sun 
Fstart 1420.497 fstop 1422.503 spacing 0.009375 bw    2.400 fbw    2.000 MHz nfreq 256 nsam 1048576 npoint 214 integ    79 sigma    0.200 bsw 0
Spectrum 
1023.542 1040.910 1041.131 1043.115 1042.203 1048.269 1043.749 1040.290 1040.106 1039.248 1040.207 1039.730 1046.313 1041.923 1042.906 1045.395 1049.980 1048.068 1047.102 1051.669 1046.419 1049.782 1048.241 1044.433 1049.243 1044.776 1045.307 1047.122 1040.550 1044.215 1040.821 1039.210 1047.167 1040.440 1038.391 1040.412 1037.370 1041.179 1060.208 1040.908 1046.083 1039.718 1050.707 1039.940 1041.338 1045.932 1041.914 1046.109 1047.433 1043.802 1044.706 1045.089 1046.697 1050.322 1048.322 1046.193 1047.524 1051.757 1047.705 1046.391 1045.626 1045.026 1045.339 1054.395 1046.499 1048.593 1060.767 1047.686 1045.518 1045.855 1043.569 1045.171 1043.920 1049.132 1045.688 1043.145 1045.177 1045.334 1054.569 1045.069 1047.937 1048.150 1046.396 1060.876 1046.815 1049.265 1053.322 1046.042 1061.228 1048.630 1048.373 1048.125 1050.344 1055.681 1056.769 1049.046 1051.862 1050.114 1049.780 1052.268 1051.046 1052.072 1051.889 1048.489 1050.547 1049.420 1054.556 1047.365 1050.670 1060.140 1049.038 1049.816 1050.649 1049.590 1052.077 1049.341 1048.371 1048.920 1054.947 1053.888 1049.502 1053.867 1057.794 1050.319 1059.822 1050.821 1049.640 1050.421 1049.971 1054.266 1050.392 1049.580 1052.703 1049.843 1061.699 1056.197 1048.576 1051.615 1051.338 1054.290 1056.098 1050.185 1054.262 1053.492 1051.050 1061.462 1055.374 1053.117 1056.852 1057.861 1061.846 1054.203 1058.718 1056.240 1058.138 1070.770 1055.665 1057.570 1059.892 1060.686 1069.185 1057.798 1059.226 1060.892 1059.150 1073.114 1060.678 1056.123 1059.052 1055.575 1073.179 1057.586 1059.487 1055.578 1055.732 1057.444 1056.131 1057.949 1055.730 1054.120 1057.311 1058.649 1056.525 1059.952 1056.565 1058.643 1067.763 1059.562 1069.768 1059.163 1061.717 1065.915 1063.655 1066.131 1066.562 1064.421 1070.786 1066.003 1066.467 1068.211 1063.373 1067.584 1063.276 1061.394 1073.735 1060.781 1060.506 1061.684 1071.133 1069.965 1063.294 1067.697 1067.260 1063.452 
DATE 2015:208:19:29:15 obsn  35 az 244 el 51 freq_MHz  1421.5000 Tsys 171.900 Tant 946.127 vlsr    9.58 glat 29.385 glon 205.201 source Sun 
Fstart 1420.497 fstop 1422.503 spacing 0.009375 bw    2.400 fbw    2.000 MHz nfreq 256 nsam 1048576 npoint 214 integ    81 sigma    0.197 bsw 0
Spectrum 
1025.573 1042.512 1042.619 1044.780 1044.102 1049.959 1045.683 1042.221 1042.005 1040.815 1041.990 1041.683 1048.019 1043.751 1044.438 1046.971 1051.602 1049.675 1048.796 1053.355 1048.389 1051.740 1050.230 1045.945 1050.812 1046.567 1046.990 1048.665 1042.373 1045.960 1042.324 1041.269 1049.228 1041.998 1040.086 1042.133 1039.397 1043.219 1061.828 1042.390 1048.075 1041.049 1052.456 1041.844 1043.126 1047.723 1043.897 1047.871 1049.215 1045.240 1046.208 1047.262 1048.631 1051.964 1049.834 1047.688 1049.329 1053.440 1049.815 1048.090 1047.713 1046.827 1046.999 1056.280 1048.228 1050.274 1062.357 1049.576 1047.349 1047.805 1045.158 1046.908 1045.608 1050.813 1047.161 1045.083 1046.977 1046.953 1056.295 1046.424 1049.575 1049.979 1048.120 1062.445 1048.236 1051.231 1055.054 1047.813 1063.190 1050.202 1049.862 1049.932 1051.875 1057.301 1058.791 1050.822 1053.759 1051.790 1051.422 1054.018 1052.513 1053.684 1053.709 1050.135 1052.803 1051.202 1056.062 1049.172 1052.521 1061.815 1050.663 1051.379 1052.312 1051.203 1053.547 1051.062 1050.193 1050.983 1056.664 1055.861 1051.468 1055.363 1059.465 1051.793 1061.303 1052.485 1051.175 1052.134 1051.906 1055.892 1052.265 1051.288 1054.305 1051.451 1063.300 1057.959 1050.679 1053.337 1053.083 1055.896 1058.139 1051.452 1055.960 1055.174 1052.946 1063.318 1056.530 1054.909 1058.190 1059.422 1063.704 1055.957 1060.477 1057.913 1059.050 1072.443 1057.475 1059.230 1061.237 1062.500 1070.874 1059.436 1060.842 1062.420 1060.848 1075.373 1062.397 1057.761 1060.799 1057.105 1075.252 1059.401 1061.079 1057.118 1057.450 1058.951 1057.714 1059.779 1057.055 1055.670 1058.967 1060.600 1058.295 1061.648 1058.181 1060.580 1069.438 1061.364 1071.760 1060.888 1063.384 1067.453 1065.025 1067.779 1067.983 1065.894 1072.304 1067.767 1068.196 1069.942 1065.382 1069.257 1064.857 1062.865 1075.463 1062.418 1061.915 1063.270 1072.786 1071.255 1064.937 1069.438 1068.679 1065.033 
DATE 2015:208:19:29:29 obsn  36 az 244 el 51 freq_MHz  1421.5000 Tsys 171.900 Tant 954.683 vlsr    9.58 glat 29.385 glon 205.201 source Sun 
Fstart 1420.497 fstop 1422.503 spacing 0.009375 bw    2.400 fbw    2.000 MHz nfreq 256 nsam 1048576 npoint 214 integ    83 sigma    0.195 bsw 0
Spectrum 
1027.187 1044.123 1044.335 1046.913 1046.116 1051.943 1047.598 1044.336 1043.737 1042.611 1043.852 1043.692 1049.887 1045.864 1046.098 1049.034 1053.446 1051.485 1050.794 1055.532 1050.098 1053.642 1052.014 1047.544 1052.534 1048.145 1048.769 1050.695 1044.561 1047.948 1044.441 1042.957 1051.156 1044.026 1042.177 1043.873 1041.297 1044.899 1063.768 1044.189 1050.055 1042.873 1054.102 1043.335 1044.820 1049.450 1045.761 1049.456 1050.770 1046.841 1047.876 1049.336 1050.674 1053.494 1051.591 1049.572 1051.275 1055.355 1051.733 1049.810 1049.813 1048.641 1048.861 1058.058 1050.052 1052.111 1064.142 1051.295 1049.368 1049.601 1047.409 1048.776 1047.283 1052.245 1049.221 1046.974 1049.080 1048.906 1057.927 1048.170 1051.335 1051.945 1049.528 1064.322 1049.929 1053.138 1056.705 1049.780 1064.878 1052.169 1051.444 1052.186 1053.582 1059.425 1060.454 1052.522 1055.749 1053.549 1053.213 1055.810 1054.426 1055.579 1055.537 1051.950 1054.787 1053.015 1057.704 1050.703 1054.129 1063.455 1052.359 1053.138 1054.107 1053.314 1055.417 1052.961 1052.114 1053.000 1058.567 1057.569 1053.229 1057.554 1060.992 1053.533 1063.360 1054.109 1052.719 1054.080 1053.721 1057.488 1054.233 1053.418 1055.764 1053.274 1064.901 1059.919 1052.785 1055.075 1054.952 1057.651 1059.985 1053.006 1057.719 1056.748 1054.790 1065.085 1058.451 1056.380 1060.063 1061.278 1065.666 1057.793 1062.342 1059.689 1061.287 1074.740 1059.602 1061.095 1062.819 1064.278 1072.749 1061.150 1062.645 1063.869 1062.444 1077.139 1064.124 1059.522 1062.395 1059.018 1076.842 1061.116 1062.809 1058.626 1059.313 1061.082 1059.468 1061.589 1058.965 1057.257 1060.663 1061.800 1060.092 1063.336 1060.076 1062.300 1071.426 1063.251 1073.444 1062.678 1065.163 1069.039 1066.572 1069.726 1069.728 1067.790 1074.331 1069.610 1069.872 1071.752 1067.186 1071.157 1066.891 1064.359 1077.206 1064.115 1063.649 1064.958 1074.575 1073.211 1066.729 1071.056 1070.289 1066.907 
DATE 2015:208:19:29:42 obsn  37 az 244 el 51 freq_MHz  1421.5000 Tsys 171.900 Tant 963.508 vlsr    9.58 glat 29.385 glon 205.201 source Sun 
Fstart 1420.497 fstop 1422.503 spacing 0.009375 bw    2.400 fbw    2.000 MHz nfreq 256 nsam 1048576 npoint 214 integ    85 sigma    0.192 bsw 0
Spectrum 
1028.818 1046.038 1046.102 1048.906 1047.801 1053.803 1049.160 1045.985 1045.708 1044.699 1045.972 1045.205 1051.659 1047.761 1047.820 1050.774 1054.970 1052.969 1052.698 1057.137 1051.926 1055.275 1053.736 1049.509 1054.125 1049.821 1050.224 1052.334 1046.397 1049.750 1045.966 1044.589 1052.712 1045.970 1044.094 1045.666 1043.435 1046.713 1065.753 1045.848 1052.028 1044.061 1056.203 1045.108 1046.484 1051.110 1047.537 1051.337 1052.568 1048.302 1049.618 1051.164 1052.774 1055.524 1053.204 1051.109 1052.810 1056.800 1053.785 1051.487 1051.821 1050.473 1050.880 1060.055 1051.709 1053.904 1065.756 1053.058 1050.913 1051.519 1049.418 1050.751 1048.676 1054.576 1050.771 1048.915 1051.164 1050.603 1059.868 1049.640 1053.230 1053.605 1051.247 1066.238 1051.377 1054.761 1058.675 1051.352 1066.510 1053.935 1053.090 1053.423 1055.319 1061.454 1062.003 1053.959 1056.993 1055.275 1055.056 1057.688 1056.199 1057.502 1057.378 1053.179 1056.417 1054.821 1059.314 1052.588 1055.867 1065.145 1054.156 1055.052 1055.624 1054.754 1057.132 1054.553 1054.309 1054.390 1060.156 1059.662 1055.296 1058.966 1062.287 1055.164 1065.122 1055.816 1054.336 1056.143 1055.661 1059.214 1055.887 1055.350 1057.443 1055.068 1067.033 1061.341 1054.040 1056.903 1056.606 1059.055 1061.824 1054.368 1059.612 1058.729 1056.934 1066.734 1060.177 1058.083 1061.751 1063.262 1067.026 1059.519 1063.714 1061.449 1063.005 1076.495 1061.257 1062.768 1064.357 1065.767 1074.275 1063.005 1064.139 1065.273 1064.226 1079.071 1065.844 1061.012 1064.165 1060.194 1078.529 1062.895 1064.737 1060.224 1060.976 1062.415 1061.337 1063.131 1060.710 1058.824 1062.129 1063.643 1061.714 1064.693 1061.995 1063.718 1073.218 1065.256 1075.157 1064.432 1066.776 1070.818 1068.082 1071.393 1071.456 1069.379 1076.042 1071.586 1071.558 1073.486 1068.770 1072.498 1068.580 1065.610 1078.821 1065.937 1065.400 1066.716 1076.235 1074.993 1068.466 1072.612 1072.071 1068.749 
DATE 2015:208:19:29:57 obsn  38 az 245 el 50 freq_MHz  1421.5000 Tsys 171.900 Tant 840.879 vlsr    9.58 glat 29.385 glon 205.202 source Sun 
Fstart 1420.497 fstop 1422.503 spacing 0.009375 bw    2.400 fbw    2.000 MHz nfreq 256 nsam 1048576 npoint 214 integ    88 sigma    0.190 bsw 0
Spectrum 
1030.245 1047.898 1047.601 1050.599 1049.190 1055.164 1050.539 1047.665 1047.418 1046.481 1047.570 1046.769 1053.291 1049.155 1049.486 1052.347 1056.564 1054.819 1054.047 1058.962 1053.645 1057.109 1055.084 1051.085 1055.680 1051.318 1051.638 1054.180 1048.178 1051.348 1047.507 1046.054 1054.269 1047.340 1045.740 1047.002 1045.000 1048.320 1067.132 1047.538 1053.595 1045.808 1057.735 1046.849 1048.143 1052.517 1048.843 1053.147 1054.139 1049.704 1051.326 1052.830 1054.455 1057.523 1055.047 1052.847 1054.195 1058.326 1055.431 1053.083 1053.208 1051.883 1052.546 1061.678 1053.267 1055.308 1067.332 1054.863 1052.473 1053.232 1050.719 1052.114 1050.160 1055.993 1052.459 1050.338 1052.633 1052.393 1061.183 1051.265 1054.864 1055.226 1052.582 1068.145 1052.928 1056.239 1060.200 1053.110 1067.931 1055.496 1054.669 1055.555 1057.246 1063.036 1063.692 1055.555 1058.625 1057.155 1056.781 1059.331 1057.848 1059.272 1059.028 1054.822 1057.926 1056.061 1060.644 1054.192 1057.365 1066.909 1055.455 1056.854 1057.339 1056.665 1058.754 1056.103 1055.462 1055.895 1061.973 1061.030 1056.880 1060.414 1063.925 1056.737 1067.181 1057.247 1055.656 1057.787 1057.307 1060.588 1057.642 1056.763 1058.737 1056.790 1068.602 1062.925 1055.652 1058.610 1058.179 1060.430 1063.377 1055.606 1060.894 1060.239 1059.025 1068.181 1061.606 1059.803 1063.491 1064.847 1068.480 1061.391 1065.309 1063.012 1064.102 1078.041 1062.760 1064.251 1065.854 1067.299 1075.826 1064.560 1065.840 1066.696 1065.986 1080.468 1067.060 1062.782 1065.842 1061.824 1080.066 1064.516 1065.897 1061.894 1062.721 1064.030 1062.722 1064.512 1062.057 1060.436 1064.084 1065.209 1063.165 1066.148 1063.292 1065.151 1074.624 1066.701 1076.840 1066.056 1068.199 1072.229 1069.652 1072.372 1072.843 1070.408 1077.560 1073.079 1073.149 1074.901 1070.493 1073.924 1069.858 1066.993 1080.344 1067.463 1067.190 1068.173 1077.677 1076.683 1069.934 1074.080 1073.518 1070.150 
