DATE 2015:209:19:29:07 obsn   0 az 244 el 50 freq_MHz  1421.5000 Tsys 188.600 Tant 890.200 vlsr    9.45 glat 30.168 glon 205.831 source Sun 
Fstart 1420.497 fstop 1422.503 spacing 0.009375 bw    2.400 fbw    2.000 MHz nfreq 256 nsam 1048576 npoint 214 integ     4 sigma    0.932 bsw 0
Spectrum 
 717.002  719.388  710.177  708.550  711.175  715.765  713.993  708.786  710.286  724.802  720.603  705.167  717.057  713.803  713.600  713.434  721.588  722.620  720.784  715.048  711.361  715.743  710.806  712.755  709.413  706.460  717.183  724.518  711.212  715.716  714.870  712.770  715.578  716.489  706.103  713.835  708.401  711.176  724.352  704.442  719.985  711.198  711.816  715.527  711.719  711.963  710.744  714.669  705.743  714.772  706.069  714.383  717.001  718.540  717.340  713.678  711.759  723.101  718.915  714.840  715.096  708.992  713.169  717.537  715.171  719.619  721.050  721.638  714.258  710.783  710.453  713.723  708.854  715.477  713.117  710.317  713.964  713.749  714.238  713.348  712.539  708.415  717.159  726.584  710.464  715.656  711.265  714.110  720.700  710.235  713.375  718.451  718.672  718.322  721.692  723.310  718.199  720.222  718.901  711.758  717.326  718.482  716.765  711.668  719.088  710.999  714.723  708.998  718.800  715.819  710.211  718.424  719.478  713.477  716.488  718.560  717.930  712.304  722.069  714.331  716.459  712.730  718.489  718.963  720.599  718.860  713.915  716.303  723.695  727.359  728.441  719.012  715.688  718.622  720.193  722.638  715.872  726.540  717.731  719.048  722.106  713.211  716.049  718.300  717.415  725.613  720.117  722.453  721.933  718.201  716.484  722.294  718.824  719.633  718.752  721.037  717.981  718.383  720.897  718.140  715.204  718.818  719.189  720.646  717.589  719.017  724.651  720.081  716.166  712.178  718.791  711.163  716.997  716.259  710.519  715.001  713.158  712.896  721.363  720.529  718.070  717.450  721.208  722.946  718.872  723.576  726.148  723.649  724.117  717.638  723.344  718.796  718.225  719.633  717.606  712.931  721.102  715.120  715.920  716.318  714.033  722.204  716.513  722.731  725.126  714.608  717.575  717.048  730.619  722.117  719.841  729.511  721.064  729.547 
DATE 2015:209:19:29:20 obsn   1 az 244 el 50 freq_MHz  1421.5000 Tsys 188.600 Tant 897.315 vlsr    9.45 glat 30.168 glon 205.831 source Sun 
Fstart 1420.497 fstop 1422.503 spacing 0.009375 bw    2.400 fbw    2.000 MHz nfreq 256 nsam 1048576 npoint 214 integ     7 sigma    0.761 bsw 0
Spectrum 
 837.949  841.871  830.248  826.015  828.669  839.218  831.810  827.134  831.220  842.191  838.838  826.573  836.852  830.676  834.048  833.894  843.405  837.593  840.335  833.151  829.325  834.417  830.321  833.363  836.133  832.564  833.668  843.474  832.202  830.625  833.865  830.655  842.952  833.178  830.245  838.873  829.731  835.032  848.518  826.485  837.902  834.520  832.013  834.698  829.873  827.965  830.726  836.721  828.870  836.069  824.862  834.013  834.988  837.512  836.473  824.393  835.010  837.633  836.700  833.467  834.982  832.760  833.724  834.570  836.425  841.678  850.634  840.355  831.791  835.358  833.263  834.701  828.046  835.234  832.359  833.059  830.529  834.143  840.380  829.799  835.195  837.500  843.817  849.828  831.845  838.726  834.629  835.187  838.549  831.864  840.924  836.836  834.418  842.616  841.720  837.859  841.531  839.497  838.702  835.530  839.831  837.722  838.913  831.253  838.182  835.246  836.012  829.729  837.397  838.587  832.283  838.506  840.259  835.661  837.017  837.969  835.817  838.532  839.806  834.503  837.207  840.314  838.165  843.077  844.700  841.203  837.405  839.132  843.229  846.447  848.020  840.646  832.637  844.280  844.597  845.015  839.128  846.941  839.986  840.349  842.233  831.976  836.812  842.468  840.127  848.259  845.745  843.855  843.498  839.803  842.897  842.178  840.275  836.385  845.044  843.480  841.163  839.022  845.719  841.330  836.064  839.076  837.398  840.294  844.262  841.461  841.733  840.704  842.625  833.642  840.529  833.658  842.661  837.959  836.059  839.007  836.591  836.197  839.996  837.143  837.920  841.649  841.521  845.127  840.709  849.123  843.419  844.685  848.959  839.167  847.647  845.458  843.741  837.884  846.530  837.955  842.325  840.722  837.746  838.875  837.545  846.611  838.472  847.962  853.266  841.058  841.212  839.433  859.004  846.058  840.806  851.382  845.722  851.303 
DATE 2015:209:19:29:33 obsn   2 az 244 el 50 freq_MHz  1421.5000 Tsys 188.600 Tant 907.336 vlsr    9.45 glat 30.168 glon 205.832 source Sun 
Fstart 1420.497 fstop 1422.503 spacing 0.009375 bw    2.400 fbw    2.000 MHz nfreq 256 nsam 1048576 npoint 214 integ     9 sigma    0.659 bsw 0
Spectrum 
 900.871  901.809  892.629  889.183  891.912  902.253  895.143  891.858  894.191  900.935  899.749  892.577  900.190  895.535  899.763  898.731  908.068  897.406  899.869  896.984  893.950  895.052  893.538  895.093  894.865  893.067  896.793  899.709  893.053  888.647  895.738  894.270  904.598  895.149  895.891  897.461  892.293  900.225  912.126  890.042  899.318  896.739  896.476  898.255  893.228  889.671  893.432  899.983  889.986  895.147  886.648  894.883  898.053  896.593  897.378  889.559  896.625  899.633  897.920  897.730  897.330  893.379  894.685  899.618  895.133  904.830  916.672  902.767  894.514  902.723  894.278  898.305  889.744  894.990  895.029  892.485  890.967  894.215  900.854  892.786  899.764  902.311  906.273  910.540  896.082  903.745  896.402  895.411  900.744  894.892  898.395  898.678  898.652  904.418  898.336  902.307  901.385  902.043  899.388  897.736  900.268  900.056  902.450  891.679  899.246  900.039  902.151  895.732  895.497  901.343  895.804  901.265  904.904  898.135  897.889  900.749  897.642  900.721  902.189  900.521  899.803  904.227  906.325  905.636  907.637  902.966  899.867  902.985  905.030  908.390  910.474  902.305  900.239  906.251  908.277  910.382  901.986  908.604  901.818  905.330  904.460  896.726  902.628  901.918  900.374  907.522  906.157  908.111  905.852  905.546  907.266  903.756  902.323  903.016  907.076  909.988  903.866  901.375  906.202  904.457  904.583  899.713  898.713  902.336  906.011  907.414  903.666  898.862  906.345  899.433  907.747  897.370  905.251  898.677  898.419  903.459  902.215  900.790  903.234  900.859  899.879  905.116  905.141  907.717  904.119  909.992  906.517  909.095  909.438  902.853  912.137  905.876  903.928  904.249  908.203  903.898  906.940  902.144  903.043  903.276  902.147  908.984  903.008  906.505  914.760  903.309  902.598  903.411  925.236  910.980  905.943  914.721  908.496  914.740 
DATE 2015:209:19:29:47 obsn   3 az 244 el 50 freq_MHz  1421.5000 Tsys 188.600 Tant 910.409 vlsr    9.45 glat 30.169 glon 205.832 source Sun 
Fstart 1420.497 fstop 1422.503 spacing 0.009375 bw    2.400 fbw    2.000 MHz nfreq 256 nsam 1048576 npoint 214 integ    11 sigma    0.589 bsw 0
Spectrum 
 937.011  939.673  931.752  928.028  932.640  939.288  931.299  929.464  934.966  938.358  936.001  931.543  938.702  937.888  937.313  937.205  946.771  937.628  938.616  935.463  935.536  934.637  934.324  931.770  933.062  934.815  934.788  936.645  932.175  932.113  934.933  932.318  945.436  932.732  934.802  937.771  931.459  936.532  951.596  928.931  937.998  936.893  936.107  936.022  931.830  930.195  929.793  934.430  929.099  933.953  930.052  933.608  937.536  935.392  934.707  928.603  935.765  939.301  935.418  937.065  933.407  931.919  932.912  938.448  935.929  943.924  956.941  938.271  934.100  941.894  935.085  938.048  929.726  931.424  933.945  934.917  932.050  931.230  942.924  932.066  939.842  939.991  944.193  947.135  934.600  941.529  936.674  935.793  941.303  933.497  939.643  936.851  936.304  943.624  939.601  937.674  940.726  939.481  936.151  935.343  940.103  938.483  940.598  931.420  939.438  938.879  945.836  936.764  934.613  943.778  935.045  938.757  941.274  935.681  935.375  938.878  935.078  939.535  939.824  941.713  937.319  942.896  946.841  945.573  943.516  942.600  939.182  941.930  945.908  948.327  949.229  940.438  936.876  945.194  949.223  946.054  937.453  946.173  943.911  945.164  946.330  936.355  942.050  941.670  940.666  948.021  946.464  948.322  943.316  945.220  947.890  942.378  946.013  941.459  945.477  950.476  944.822  941.608  944.681  942.519  944.996  942.565  939.953  940.550  943.326  946.941  943.639  938.887  944.860  936.736  946.567  937.846  945.886  936.985  937.996  943.787  941.286  940.868  943.867  939.767  939.801  944.804  944.807  945.014  942.422  946.606  948.073  948.299  948.005  942.619  950.193  946.046  943.497  946.326  944.598  944.968  946.609  942.741  944.881  942.919  944.314  949.842  942.064  944.968  954.217  939.454  942.160  944.816  963.946  949.446  947.341  957.551  948.204  953.631 
DATE 2015:209:19:30:00 obsn   4 az 244 el 50 freq_MHz  1421.5000 Tsys 188.600 Tant 923.019 vlsr    9.45 glat 30.169 glon 205.832 source Sun 
Fstart 1420.497 fstop 1422.503 spacing 0.009375 bw    2.400 fbw    2.000 MHz nfreq 256 nsam 1048576 npoint 214 integ    13 sigma    0.538 bsw 0
Spectrum 
 963.189  966.045  959.877  955.849  960.877  964.421  958.334  955.880  960.208  965.820  959.952  956.432  964.467  962.131  964.541  964.360  971.999  962.061  963.916  962.533  962.549  961.060  964.173  958.809  961.584  961.176  959.429  962.565  961.131  958.979  963.392  960.592  972.771  959.989  960.812  962.711  956.055  962.264  978.090  955.561  963.165  961.925  962.969  959.659  957.484  958.685  954.404  962.565  956.919  960.673  958.558  960.183  960.929  961.495  962.707  956.865  961.640  967.412  964.865  962.195  958.583  958.562  958.455  963.195  961.451  969.899  981.825  963.582  961.733  967.895  960.643  965.277  956.510  959.601  961.719  961.731  958.381  956.940  970.766  959.011  966.809  966.930  968.376  975.582  960.463  967.715  962.135  960.898  969.349  959.269  965.197  962.302  962.385  970.869  965.483  962.796  965.534  965.318  962.165  960.626  968.494  966.975  966.135  961.559  966.381  965.744  970.813  962.666  959.469  970.121  962.456  967.481  968.474  963.181  959.943  967.736  961.241  965.876  967.268  966.755  962.786  968.350  972.685  970.696  969.705  967.305  964.121  968.559  971.328  973.222  975.305  967.291  963.988  971.164  975.522  970.407  963.701  973.189  971.931  973.330  974.189  966.094  968.718  966.412  967.135  974.896  971.610  973.615  969.441  971.449  973.328  969.995  972.543  966.080  972.084  978.104  971.854  965.485  969.899  969.249  971.479  971.320  967.700  969.636  969.245  973.896  969.509  964.126  970.168  962.970  973.330  964.267  971.978  963.187  965.672  970.512  970.760  969.870  969.067  966.059  966.366  971.955  971.695  973.281  968.928  973.823  975.769  973.958  976.502  969.354  977.382  972.509  970.779  974.940  973.572  971.336  972.830  969.152  972.230  970.453  973.485  977.273  967.028  973.369  978.779  967.333  969.763  971.653  989.320  976.615  974.180  983.541  973.319  980.834 
DATE 2015:209:19:30:13 obsn   5 az 244 el 50 freq_MHz  1421.5000 Tsys 188.600 Tant 928.079 vlsr    9.45 glat 30.169 glon 205.832 source Sun 
Fstart 1420.497 fstop 1422.503 spacing 0.009375 bw    2.400 fbw    2.000 MHz nfreq 256 nsam 1048576 npoint 214 integ    15 sigma    0.498 bsw 0
Spectrum 
 983.799  987.781  980.962  976.389  984.151  985.717  980.394  977.582  982.296  988.208  982.889  978.947  985.632  983.369  985.485  985.931  991.917  984.064  987.007  982.712  983.824  983.486  987.593  981.045  983.822  982.175  981.073  982.457  981.219  981.218  984.902  983.343  992.060  980.558  983.070  985.768  978.184  983.920  999.392  977.631  984.655  982.651  984.848  982.060  978.775  981.816  977.176  983.577  977.028  984.255  979.783  981.773  981.629  985.136  984.693  977.364  983.506  988.443  985.746  983.205  982.378  979.760  978.893  985.755  982.920  989.360 1003.724  986.908  984.560  990.530  984.272  987.397  979.438  980.982  986.088  984.852  980.446  978.854  989.855  980.684  987.957  989.012  990.359  995.676  984.331  989.490  985.435  982.101  992.732  982.082  986.441  982.732  985.209  992.782  986.710  983.887  988.399  985.789  984.061  983.548  989.713  987.789  985.926  983.525  986.689  987.485  990.542  984.669  982.714  995.662  984.243  990.067  988.660  984.210  984.692  989.795  983.664  987.948  988.515  987.198  984.223  990.585  993.968  993.109  992.753  989.164  987.642  991.756  993.442  995.160  996.427  988.400  986.793  992.579  997.490  993.823  987.496  995.099  993.069  996.039  994.845  986.522  993.692  990.233  989.848  995.689  992.729  995.005  991.011  994.146  995.251  990.961  994.080  988.142  995.033 1003.723  994.755  986.873  993.518  990.371  994.474  993.928  988.375  992.246  991.283  995.847  990.058  985.694  992.902  985.365  993.019  987.556  992.290  986.808  988.140  991.182  993.298  991.997  990.045  987.488  988.312  991.845  993.477  995.907  993.389  995.631  997.180  994.603 1001.159  991.735  997.962  993.536  991.767  998.067  995.806  992.628  994.238  992.325  996.673  992.044  997.466  998.411  990.845  995.741 1001.484  990.463  993.102  993.949 1011.313 1000.695  997.188 1004.152  996.014 1001.866 
DATE 2015:209:19:30:26 obsn   6 az 244 el 50 freq_MHz  1421.5000 Tsys 188.600 Tant 938.293 vlsr    9.45 glat 30.169 glon 205.832 source Sun 
Fstart 1420.497 fstop 1422.503 spacing 0.009375 bw    2.400 fbw    2.000 MHz nfreq 256 nsam 1048576 npoint 214 integ    17 sigma    0.466 bsw 0
Spectrum 
1000.710 1003.244  997.171  992.914 1000.799 1000.849  996.356  993.804  999.186 1004.427  999.692  995.788 1002.580 1000.204 1001.458 1003.461 1007.511  999.167 1003.988 1001.229 1001.924 1001.484 1004.779  997.132 1001.500  999.314  999.423  998.382  997.250  997.590 1002.403 1000.669 1007.135  995.623  999.095 1001.301  995.204  999.091 1015.127  995.817 1001.178 1000.372 1003.400  997.186  993.751  999.143  994.180  999.274  994.110 1000.521  997.468  998.227  998.106 1001.686 1000.659  995.428 1000.027 1005.949 1002.571  999.354 1000.992  995.510  996.877 1002.109 1000.659 1005.633 1020.587 1004.428 1000.981 1006.447 1000.777 1004.107  996.329  998.575 1003.290 1000.206  997.064  997.338 1007.194  996.735 1005.429 1004.570 1006.375 1014.048  999.550 1006.451 1003.346  998.633 1011.432  999.795 1002.270 1000.521 1004.088 1009.217 1003.498 1000.940 1006.263 1002.044 1000.516  999.713 1006.707 1003.274 1002.051 1001.617 1003.136 1003.644 1006.948 1001.782 1000.031 1012.953 1000.552 1007.840 1003.896 1000.525 1001.216 1006.272 1002.153 1003.410 1005.986 1006.636 1002.382 1006.439 1011.076 1010.442 1009.909 1006.017 1003.478 1009.493 1009.712 1010.615 1010.031 1005.643 1003.623 1008.733 1015.810 1010.812 1004.722 1011.316 1008.902 1012.256 1011.295 1004.981 1009.987 1006.411 1008.001 1011.777 1009.759 1010.822 1007.081 1010.257 1012.649 1007.640 1012.226 1004.588 1012.335 1019.905 1011.170 1004.977 1008.470 1006.886 1010.324 1011.912 1006.155 1009.879 1007.837 1012.893 1007.607 1002.202 1010.676 1004.152 1010.787 1004.673 1008.356 1003.074 1004.387 1007.381 1011.065 1009.309 1006.450 1004.430 1005.634 1011.055 1010.195 1011.283 1011.802 1011.336 1012.303 1012.774 1018.289 1008.841 1015.494 1011.059 1008.245 1014.988 1012.722 1008.876 1010.153 1007.554 1014.650 1009.226 1013.417 1015.212 1006.119 1011.840 1019.429 1007.048 1009.944 1010.281 1027.891 1017.389 1014.179 1021.647 1012.915 1017.448 
DATE 2015:209:19:30:39 obsn   7 az 244 el 50 freq_MHz  1421.5000 Tsys 188.600 Tant 941.381 vlsr    9.45 glat 30.169 glon 205.832 source Sun 
Fstart 1420.497 fstop 1422.503 spacing 0.009375 bw    2.400 fbw    2.000 MHz nfreq 256 nsam 1048576 npoint 214 integ    20 sigma    0.439 bsw 0
Spectrum 
1014.384 1014.447 1008.917 1005.120 1013.478 1014.080 1010.550 1007.254 1011.270 1016.914 1013.197 1008.739 1015.680 1012.261 1014.158 1014.940 1020.834 1012.872 1015.345 1014.422 1012.963 1013.917 1018.571 1010.509 1013.080 1013.196 1012.982 1010.774 1010.861 1009.943 1014.424 1011.787 1018.981 1009.024 1010.972 1013.613 1006.509 1012.028 1026.834 1008.341 1015.234 1012.789 1015.869 1009.760 1007.307 1013.511 1007.402 1010.852 1007.077 1011.039 1010.130 1010.868 1012.871 1015.294 1011.713 1005.246 1013.023 1018.309 1014.989 1011.640 1014.393 1009.142 1009.407 1014.763 1013.463 1020.371 1034.634 1014.734 1014.303 1018.176 1014.195 1015.423 1009.370 1011.710 1015.973 1011.313 1009.340 1010.772 1019.719 1009.331 1017.687 1018.743 1017.948 1028.111 1012.632 1017.859 1016.008 1011.673 1023.142 1011.885 1014.690 1013.776 1015.896 1021.162 1014.153 1014.220 1017.769 1014.102 1013.798 1012.248 1017.232 1016.378 1015.624 1014.324 1015.174 1016.192 1018.857 1014.039 1011.558 1024.210 1013.711 1019.090 1017.790 1012.410 1013.887 1019.175 1015.210 1015.263 1019.834 1018.772 1014.902 1019.361 1021.966 1021.023 1023.178 1017.488 1015.999 1020.829 1022.382 1021.720 1023.423 1019.532 1016.276 1020.287 1029.278 1024.480 1017.844 1024.640 1022.192 1024.874 1025.122 1018.214 1022.928 1017.926 1019.395 1024.776 1022.390 1022.516 1019.988 1023.890 1026.544 1020.883 1025.340 1017.414 1024.204 1032.610 1023.728 1017.175 1022.095 1019.112 1022.102 1023.541 1019.852 1023.840 1020.714 1025.730 1019.541 1015.541 1022.807 1017.378 1024.311 1017.631 1020.756 1015.264 1016.683 1020.098 1024.113 1020.223 1020.046 1018.116 1017.924 1023.574 1023.078 1025.435 1023.749 1024.198 1025.071 1025.453 1031.576 1022.212 1026.451 1023.958 1021.381 1028.822 1023.971 1021.941 1022.776 1020.086 1030.264 1024.265 1024.444 1027.896 1018.876 1025.254 1033.064 1020.435 1023.392 1023.186 1041.058 1029.187 1027.217 1033.131 1026.632 1031.042 
DATE 2015:209:19:30:55 obsn   8 az 245 el 50 freq_MHz  1421.5000 Tsys 188.600 Tant 891.248 vlsr    9.45 glat 30.169 glon 205.832 source Sun 
Fstart 1420.497 fstop 1422.503 spacing 0.009375 bw    2.400 fbw    2.000 MHz nfreq 256 nsam 1048576 npoint 214 integ    22 sigma    0.417 bsw 0
Spectrum 
1024.938 1026.884 1020.151 1015.763 1022.793 1024.290 1022.334 1018.179 1022.073 1027.366 1024.052 1020.177 1026.057 1022.641 1025.290 1024.988 1030.568 1023.409 1026.862 1026.638 1022.977 1023.585 1029.076 1020.987 1023.732 1023.813 1023.196 1020.789 1021.680 1021.554 1025.417 1021.690 1029.536 1019.957 1022.252 1023.937 1018.229 1022.777 1036.799 1018.129 1025.002 1022.882 1026.744 1021.155 1016.766 1024.278 1018.725 1021.033 1018.022 1022.316 1021.696 1020.826 1023.316 1025.159 1023.299 1016.998 1022.255 1027.387 1025.074 1021.140 1026.717 1019.249 1020.663 1026.163 1024.180 1030.043 1045.987 1024.979 1024.455 1028.398 1025.584 1026.631 1020.435 1023.488 1025.107 1022.383 1019.775 1020.175 1030.292 1021.028 1030.316 1030.087 1027.884 1037.343 1023.377 1027.952 1026.448 1022.302 1035.547 1022.399 1023.368 1024.554 1024.865 1030.139 1026.047 1025.085 1028.563 1023.203 1024.562 1022.573 1027.614 1026.200 1026.654 1024.795 1025.063 1026.947 1028.887 1025.417 1022.127 1035.596 1024.258 1029.076 1026.672 1022.974 1025.139 1029.955 1025.643 1024.066 1030.698 1030.357 1025.749 1030.102 1033.276 1032.577 1034.513 1028.147 1026.762 1030.396 1032.872 1033.391 1033.001 1030.203 1028.081 1031.917 1040.858 1035.375 1027.024 1036.519 1033.746 1035.889 1035.895 1029.593 1033.486 1028.127 1031.355 1035.376 1032.732 1032.976 1030.230 1033.563 1038.146 1030.913 1034.075 1027.760 1035.926 1042.679 1036.030 1029.284 1031.308 1030.633 1035.886 1033.376 1032.064 1033.952 1028.901 1037.409 1030.588 1027.484 1033.711 1028.618 1035.781 1028.159 1030.419 1025.043 1027.793 1029.254 1032.869 1029.821 1030.238 1029.508 1028.818 1034.430 1033.868 1036.506 1034.483 1034.573 1036.344 1036.315 1042.551 1033.438 1037.487 1035.517 1032.651 1039.812 1034.593 1032.467 1034.240 1031.779 1040.568 1034.022 1034.466 1038.221 1029.112 1033.678 1043.199 1030.744 1033.678 1034.137 1050.302 1039.412 1037.211 1043.706 1038.511 1042.362 
DATE 2015:209:19:31:08 obsn   9 az 245 el 50 freq_MHz  1421.5000 Tsys 188.600 Tant 899.854 vlsr    9.45 glat 30.169 glon 205.832 source Sun 
Fstart 1420.497 fstop 1422.503 spacing 0.009375 bw    2.400 fbw    2.000 MHz nfreq 256 nsam 1048576 npoint 214 integ    24 sigma    0.397 bsw 0
Spectrum 
1030.479 1031.938 1024.823 1022.658 1026.296 1029.061 1027.579 1023.225 1027.876 1031.435 1028.512 1025.084 1031.793 1027.755 1031.156 1029.318 1035.395 1029.811 1030.476 1030.724 1028.513 1027.798 1033.281 1025.700 1028.363 1029.714 1028.502 1026.815 1027.667 1025.913 1030.182 1027.559 1034.552 1026.353 1026.895 1028.300 1025.119 1028.408 1040.860 1023.969 1029.079 1026.954 1031.018 1025.914 1022.138 1027.766 1023.977 1026.497 1023.184 1026.229 1027.033 1025.986 1028.124 1030.179 1029.265 1022.659 1027.096 1032.903 1030.639 1026.482 1031.203 1025.164 1025.514 1030.734 1029.965 1034.165 1051.751 1030.944 1029.139 1032.919 1030.552 1030.549 1024.825 1028.832 1028.640 1026.984 1025.001 1024.306 1034.948 1025.887 1034.367 1035.256 1031.919 1042.805 1028.278 1031.865 1031.592 1027.198 1040.783 1028.056 1028.527 1029.132 1030.364 1035.322 1030.643 1030.260 1034.994 1029.670 1030.448 1028.181 1031.472 1031.041 1031.291 1029.628 1029.905 1031.061 1034.104 1031.301 1027.781 1040.443 1029.602 1034.025 1031.312 1027.369 1030.169 1033.790 1029.845 1029.375 1036.049 1034.969 1030.059 1035.276 1037.137 1037.136 1039.302 1032.793 1032.083 1035.261 1037.441 1037.989 1037.103 1035.011 1032.786 1035.990 1045.488 1039.397 1031.838 1042.323 1037.424 1042.036 1041.155 1033.693 1039.003 1033.016 1036.821 1040.839 1037.757 1037.215 1035.686 1038.830 1041.902 1036.205 1038.459 1033.085 1040.048 1046.771 1039.643 1035.708 1036.663 1035.014 1041.757 1040.177 1036.026 1038.695 1033.513 1043.089 1035.002 1033.105 1038.307 1035.306 1041.589 1034.005 1034.781 1031.669 1033.374 1034.502 1037.159 1035.191 1034.315 1034.562 1033.499 1039.236 1037.919 1042.345 1039.247 1038.804 1040.708 1041.021 1047.584 1039.049 1044.149 1040.513 1037.138 1044.156 1038.621 1037.062 1040.062 1037.094 1044.271 1039.943 1040.906 1043.114 1035.155 1038.884 1047.795 1036.290 1038.289 1039.047 1056.243 1045.808 1043.598 1050.119 1043.295 1046.902 
DATE 2015:209:19:31:21 obsn  10 az 245 el 50 freq_MHz  1421.5000 Tsys 188.600 Tant 906.074 vlsr    9.45 glat 30.169 glon 205.832 source Sun 
Fstart 1420.497 fstop 1422.503 spacing 0.009375 bw    2.400 fbw    2.000 MHz nfreq 256 nsam 1048576 npoint 214 integ    26 sigma    0.380 bsw 0
Spectrum 
1035.083 1037.405 1031.190 1027.310 1032.264 1035.147 1032.536 1028.866 1033.543 1036.915 1032.873 1031.524 1037.069 1033.280 1036.433 1034.604 1040.611 1035.145 1035.022 1035.619 1033.600 1032.239 1037.953 1030.505 1033.609 1035.183 1033.990 1032.535 1033.292 1030.663 1032.767 1033.175 1039.978 1030.928 1033.299 1033.857 1030.399 1033.376 1044.659 1029.329 1034.386 1033.180 1035.487 1030.989 1027.780 1032.336 1028.757 1031.712 1028.281 1031.571 1033.045 1031.021 1032.914 1036.041 1034.074 1028.186 1031.628 1036.197 1035.042 1031.660 1035.997 1030.151 1030.480 1036.485 1035.083 1038.973 1056.398 1036.010 1033.095 1038.052 1034.920 1035.484 1030.139 1034.809 1033.343 1032.398 1030.958 1030.094 1041.109 1030.834 1039.743 1041.224 1037.227 1047.377 1032.616 1037.051 1036.265 1032.315 1046.091 1034.187 1033.254 1033.929 1034.261 1041.547 1036.026 1035.493 1040.099 1033.782 1036.498 1035.061 1036.788 1037.032 1036.236 1034.069 1034.776 1035.297 1040.033 1035.485 1032.512 1044.792 1035.020 1037.968 1036.111 1032.686 1035.163 1039.272 1033.775 1034.575 1041.025 1039.747 1036.448 1039.145 1043.116 1041.556 1044.334 1038.424 1036.775 1039.834 1042.297 1043.195 1041.940 1039.210 1038.347 1040.280 1051.340 1045.019 1037.705 1047.034 1043.863 1046.766 1045.542 1038.673 1044.197 1039.558 1041.667 1045.634 1043.498 1042.271 1041.598 1043.646 1047.287 1040.659 1042.904 1039.608 1045.796 1052.210 1044.854 1040.274 1041.598 1040.250 1047.426 1044.248 1040.845 1043.406 1038.510 1048.305 1040.547 1037.977 1043.633 1040.218 1046.520 1038.959 1040.312 1038.062 1039.194 1040.791 1041.698 1041.257 1039.523 1040.184 1038.304 1043.378 1042.990 1047.992 1044.445 1043.613 1046.430 1045.616 1054.527 1044.131 1049.193 1047.502 1042.042 1049.595 1044.882 1043.134 1045.023 1041.187 1049.135 1044.932 1045.138 1048.553 1040.837 1044.411 1053.176 1042.642 1042.931 1045.713 1061.583 1051.123 1048.705 1055.466 1049.309 1052.206 
DATE 2015:209:19:31:34 obsn  11 az 245 el 50 freq_MHz  1421.5000 Tsys 188.600 Tant 918.899 vlsr    9.45 glat 30.169 glon 205.832 source Sun 
Fstart 1420.497 fstop 1422.503 spacing 0.009375 bw    2.400 fbw    2.000 MHz nfreq 256 nsam 1048576 npoint 214 integ    28 sigma    0.366 bsw 0
Spectrum 
1039.786 1041.100 1035.601 1030.943 1036.860 1038.903 1037.891 1034.308 1037.136 1041.767 1037.867 1035.955 1041.421 1038.114 1042.474 1038.686 1044.471 1039.011 1040.529 1040.904 1039.429 1037.902 1042.136 1035.234 1038.224 1039.575 1038.013 1038.238 1038.041 1035.484 1037.175 1037.723 1044.001 1036.354 1038.257 1038.929 1034.304 1037.616 1050.107 1035.126 1039.380 1037.439 1040.763 1034.891 1033.529 1036.750 1035.202 1036.226 1032.917 1036.270 1037.074 1035.919 1037.670 1041.758 1038.353 1032.917 1036.966 1041.118 1041.248 1037.452 1040.701 1035.180 1035.155 1042.045 1040.506 1043.556 1061.426 1041.286 1038.534 1042.832 1040.264 1041.435 1034.280 1039.631 1037.937 1036.930 1036.443 1035.392 1046.730 1036.724 1045.262 1045.715 1041.958 1051.628 1036.562 1041.353 1041.980 1036.431 1050.918 1038.701 1037.642 1039.211 1039.580 1047.177 1041.811 1040.023 1044.133 1038.754 1041.404 1040.585 1041.696 1042.475 1041.042 1038.774 1039.981 1040.777 1045.162 1039.144 1038.491 1049.268 1039.082 1042.600 1039.722 1037.007 1039.473 1044.291 1039.969 1040.960 1046.645 1044.447 1041.173 1043.474 1047.995 1046.996 1050.115 1043.648 1042.357 1044.721 1046.592 1049.345 1047.286 1044.448 1043.036 1045.091 1056.234 1050.380 1042.976 1051.642 1049.487 1052.918 1051.561 1043.643 1049.187 1044.392 1046.896 1051.338 1048.440 1046.293 1046.618 1049.224 1051.675 1045.937 1047.531 1045.307 1050.894 1057.754 1050.161 1044.838 1046.103 1046.586 1052.673 1049.124 1045.420 1048.062 1044.518 1052.739 1046.127 1042.839 1046.990 1045.640 1052.042 1043.809 1045.617 1043.519 1044.122 1044.828 1046.149 1046.643 1045.006 1046.677 1043.989 1048.718 1048.643 1053.073 1048.644 1049.945 1052.336 1049.424 1058.903 1049.018 1054.545 1051.793 1048.035 1054.732 1050.818 1047.511 1050.408 1047.482 1053.808 1050.016 1049.462 1053.265 1045.961 1050.292 1058.641 1047.571 1048.686 1051.257 1067.068 1055.318 1053.834 1060.347 1055.354 1057.665 
DATE 2015:209:19:31:47 obsn  12 az 245 el 50 freq_MHz  1421.5000 Tsys 188.600 Tant 918.264 vlsr    9.45 glat 30.170 glon 205.833 source Sun 
Fstart 1420.497 fstop 1422.503 spacing 0.009375 bw    2.400 fbw    2.000 MHz nfreq 256 nsam 1048576 npoint 214 integ    31 sigma    0.352 bsw 0
Spectrum 
1044.424 1046.554 1040.071 1034.394 1040.977 1043.780 1043.166 1039.125 1040.669 1045.699 1042.230 1040.767 1045.827 1043.517 1046.403 1043.586 1049.328 1042.984 1043.600 1046.113 1044.337 1042.404 1045.946 1040.516 1043.451 1043.163 1043.312 1043.627 1042.716 1040.169 1042.129 1042.503 1048.220 1040.873 1042.496 1043.583 1039.464 1042.040 1054.422 1039.945 1043.892 1042.120 1044.920 1040.327 1038.299 1040.669 1040.158 1040.858 1037.069 1040.741 1041.785 1039.847 1042.549 1047.727 1042.651 1037.977 1041.232 1044.855 1046.885 1041.930 1045.558 1039.453 1040.006 1045.817 1045.354 1048.366 1065.165 1046.275 1043.263 1047.716 1044.959 1045.034 1038.965 1043.885 1042.151 1041.820 1040.833 1040.364 1050.589 1041.155 1049.997 1049.003 1045.668 1057.116 1041.138 1045.624 1046.340 1041.502 1054.965 1042.566 1042.465 1044.317 1043.681 1050.853 1046.185 1044.760 1048.537 1044.496 1044.966 1044.931 1045.942 1047.956 1045.807 1044.215 1043.937 1045.437 1049.663 1043.396 1043.892 1054.157 1043.861 1046.394 1044.237 1042.491 1045.255 1048.177 1044.963 1045.337 1051.834 1049.187 1046.706 1048.353 1053.930 1051.614 1055.471 1047.850 1047.060 1048.967 1051.479 1053.596 1051.661 1048.326 1047.366 1049.886 1061.521 1054.916 1049.024 1056.526 1053.492 1057.563 1055.230 1049.649 1053.627 1049.389 1050.818 1056.272 1053.094 1050.418 1051.427 1054.994 1056.064 1050.028 1052.145 1049.363 1055.077 1062.023 1054.506 1049.594 1049.774 1051.662 1056.512 1053.299 1050.943 1053.060 1048.602 1056.938 1050.437 1047.834 1051.363 1049.845 1056.915 1048.563 1050.285 1048.806 1048.358 1049.339 1050.693 1051.321 1049.531 1051.745 1048.558 1052.970 1052.867 1057.198 1053.042 1054.444 1057.916 1053.779 1063.662 1053.420 1058.323 1056.996 1053.125 1058.537 1055.650 1051.792 1055.945 1052.078 1058.553 1054.451 1053.243 1057.608 1050.082 1054.316 1062.891 1051.556 1053.288 1056.209 1072.470 1060.800 1057.738 1064.830 1061.176 1061.852 
DATE 2015:209:19:32:01 obsn  13 az 245 el 50 freq_MHz  1421.5000 Tsys 188.600 Tant 930.768 vlsr    9.45 glat 30.170 glon 205.833 source Sun 
Fstart 1420.497 fstop 1422.503 spacing 0.009375 bw    2.400 fbw    2.000 MHz nfreq 256 nsam 1048576 npoint 214 integ    33 sigma    0.340 bsw 0
Spectrum 
1049.090 1050.020 1044.454 1038.945 1045.213 1048.730 1046.340 1043.167 1043.745 1049.282 1045.597 1045.051 1050.418 1048.417 1049.594 1047.502 1053.984 1047.141 1046.864 1049.531 1047.909 1046.744 1050.400 1045.232 1048.821 1047.778 1048.156 1048.739 1046.333 1045.059 1046.639 1046.724 1052.654 1045.078 1047.015 1047.656 1044.657 1046.730 1058.647 1043.511 1047.715 1046.458 1049.956 1045.008 1042.599 1044.878 1043.936 1045.063 1041.359 1045.242 1047.462 1044.311 1046.233 1052.247 1047.144 1043.562 1045.750 1048.668 1051.481 1045.543 1049.986 1043.878 1044.065 1049.486 1048.949 1052.789 1069.788 1050.723 1047.730 1051.838 1049.210 1047.959 1043.709 1048.650 1046.317 1046.975 1045.582 1044.097 1055.128 1045.147 1054.374 1053.607 1050.858 1061.045 1045.387 1050.351 1050.804 1046.212 1059.405 1047.194 1047.217 1049.225 1047.990 1055.022 1050.728 1049.045 1052.888 1048.906 1049.121 1048.720 1049.861 1052.320 1050.632 1049.001 1048.133 1049.001 1053.952 1047.859 1047.988 1058.486 1048.218 1050.932 1048.302 1046.995 1050.085 1052.372 1049.831 1050.782 1056.921 1054.276 1050.656 1052.578 1058.565 1055.734 1060.601 1052.734 1051.292 1053.836 1055.336 1057.720 1055.400 1053.127 1052.901 1054.677 1065.607 1059.472 1053.234 1060.385 1058.109 1061.590 1059.465 1054.306 1057.920 1054.243 1055.268 1061.183 1056.989 1055.476 1056.591 1059.537 1061.418 1055.219 1055.687 1054.374 1059.259 1067.035 1058.110 1052.817 1054.450 1056.359 1060.713 1057.826 1054.882 1057.348 1053.745 1062.622 1055.018 1051.854 1055.927 1054.207 1062.079 1054.282 1055.519 1053.569 1053.350 1054.411 1056.190 1056.538 1054.492 1056.130 1052.264 1058.056 1057.561 1061.868 1056.852 1059.432 1063.537 1058.041 1069.982 1059.528 1062.910 1062.249 1058.219 1064.107 1061.471 1056.404 1060.934 1056.881 1062.647 1059.244 1057.603 1062.095 1054.780 1058.501 1067.052 1056.461 1057.914 1061.947 1076.225 1065.281 1062.441 1068.679 1065.629 1067.272 
DATE 2015:209:19:32:14 obsn  14 az 245 el 50 freq_MHz  1421.5000 Tsys 188.600 Tant 942.430 vlsr    9.45 glat 30.170 glon 205.833 source Sun 
Fstart 1420.497 fstop 1422.503 spacing 0.009375 bw    2.400 fbw    2.000 MHz nfreq 256 nsam 1048576 npoint 214 integ    35 sigma    0.329 bsw 0
Spectrum 
1052.928 1053.904 1048.351 1043.465 1049.931 1052.585 1049.739 1046.489 1048.709 1053.309 1050.643 1049.348 1055.499 1051.558 1054.432 1051.750 1058.043 1051.445 1051.291 1053.646 1052.595 1050.517 1053.576 1049.377 1053.122 1051.726 1052.392 1052.679 1051.881 1049.919 1050.715 1050.766 1056.967 1049.167 1050.827 1051.466 1048.668 1050.053 1062.933 1049.094 1052.373 1050.638 1054.905 1049.110 1046.507 1050.060 1047.979 1049.237 1045.618 1049.515 1051.406 1049.128 1049.968 1056.109 1050.758 1048.028 1050.945 1053.798 1055.270 1049.695 1054.300 1048.135 1048.611 1053.947 1053.695 1056.397 1073.828 1055.454 1051.987 1055.769 1053.706 1052.375 1048.363 1053.601 1050.913 1051.536 1050.892 1049.196 1059.319 1049.350 1058.461 1058.128 1055.351 1065.430 1050.044 1055.083 1055.693 1050.880 1063.401 1051.686 1051.002 1053.134 1052.923 1059.211 1054.585 1053.435 1057.696 1053.436 1053.886 1053.171 1055.113 1056.298 1054.776 1052.877 1053.231 1052.713 1058.170 1052.990 1052.575 1063.506 1052.409 1055.049 1052.849 1051.367 1054.897 1056.808 1054.228 1054.735 1060.907 1058.654 1055.877 1056.383 1063.022 1060.507 1064.897 1056.928 1056.254 1058.885 1060.337 1062.581 1059.955 1057.880 1056.972 1058.953 1070.446 1063.996 1056.991 1063.781 1062.635 1066.025 1063.965 1058.608 1062.717 1059.105 1059.757 1065.293 1061.299 1060.170 1061.044 1063.430 1065.838 1059.519 1059.916 1058.196 1063.085 1071.124 1062.811 1056.610 1059.081 1061.711 1065.283 1062.151 1059.285 1061.735 1058.518 1066.781 1060.773 1056.233 1060.664 1058.426 1066.268 1059.424 1059.242 1057.743 1058.324 1059.083 1060.999 1060.526 1059.600 1060.891 1057.178 1063.028 1063.079 1066.327 1061.369 1063.914 1067.362 1062.367 1074.389 1063.732 1067.282 1066.988 1063.061 1067.635 1065.763 1061.272 1066.077 1061.939 1066.806 1063.151 1062.523 1066.962 1060.446 1062.941 1072.053 1061.697 1062.655 1066.663 1080.796 1069.771 1067.116 1073.638 1070.900 1071.284 
DATE 2015:209:19:32:27 obsn  15 az 245 el 50 freq_MHz  1421.5000 Tsys 188.600 Tant 949.839 vlsr    9.45 glat 30.170 glon 205.833 source Sun 
Fstart 1420.497 fstop 1422.503 spacing 0.009375 bw    2.400 fbw    2.000 MHz nfreq 256 nsam 1048576 npoint 214 integ    37 sigma    0.320 bsw 0
Spectrum 
1058.417 1058.405 1052.974 1048.270 1054.271 1056.622 1054.542 1050.962 1053.655 1057.269 1054.940 1053.293 1059.592 1056.261 1058.443 1055.557 1062.368 1055.697 1054.733 1056.842 1056.230 1054.995 1057.835 1054.202 1057.309 1056.425 1055.872 1057.614 1055.820 1054.370 1054.664 1055.592 1061.093 1053.406 1054.403 1056.323 1053.635 1053.777 1066.821 1053.150 1057.074 1054.899 1059.396 1053.542 1051.074 1053.738 1052.173 1053.673 1049.797 1053.542 1055.728 1053.166 1054.213 1061.220 1054.939 1052.952 1055.594 1058.147 1059.787 1054.428 1058.193 1052.883 1052.941 1058.287 1057.133 1061.140 1077.979 1060.064 1056.111 1060.919 1057.640 1056.345 1052.826 1058.015 1055.728 1055.748 1054.955 1054.471 1063.768 1054.194 1063.062 1062.403 1060.369 1069.861 1055.003 1059.729 1060.201 1055.385 1068.611 1055.579 1055.455 1057.172 1057.336 1063.236 1058.895 1058.095 1061.329 1057.233 1058.453 1058.955 1059.864 1060.045 1058.806 1056.996 1057.262 1057.199 1063.330 1057.313 1057.804 1068.533 1056.423 1059.070 1057.201 1056.487 1059.017 1061.240 1059.386 1059.209 1065.262 1063.127 1060.029 1060.403 1067.978 1065.297 1069.329 1061.380 1060.834 1063.090 1064.913 1067.307 1064.189 1061.977 1061.642 1064.256 1074.115 1068.258 1061.220 1067.830 1067.666 1070.142 1067.805 1063.349 1067.345 1063.865 1064.371 1069.825 1065.820 1065.018 1066.150 1068.188 1069.961 1064.653 1064.540 1063.422 1067.063 1075.821 1066.752 1062.144 1063.526 1066.364 1069.442 1066.896 1063.447 1066.242 1062.103 1071.285 1065.438 1060.995 1065.472 1062.929 1071.197 1063.891 1063.793 1062.293 1063.546 1063.981 1065.193 1065.320 1064.130 1065.666 1061.881 1067.713 1067.156 1070.288 1065.589 1069.069 1071.992 1066.969 1078.948 1068.170 1071.981 1071.434 1067.850 1072.992 1070.246 1065.807 1071.502 1066.630 1071.085 1068.169 1066.988 1071.705 1064.740 1067.266 1075.957 1065.859 1067.739 1070.735 1085.461 1074.884 1071.979 1079.584 1075.487 1076.513 
DATE 2015:209:19:32:40 obsn  16 az 245 el 50 freq_MHz  1421.5000 Tsys 188.600 Tant 949.114 vlsr    9.45 glat 30.170 glon 205.833 source Sun 
Fstart 1420.497 fstop 1422.503 spacing 0.009375 bw    2.400 fbw    2.000 MHz nfreq 256 nsam 1048576 npoint 214 integ    39 sigma    0.311 bsw 0
Spectrum 
1062.398 1062.192 1056.981 1051.811 1058.319 1059.687 1058.468 1054.801 1057.943 1061.843 1059.647 1057.428 1064.050 1060.993 1061.743 1059.485 1066.363 1059.980 1059.106 1061.196 1060.867 1059.954 1061.824 1057.911 1061.639 1060.038 1060.672 1062.171 1060.622 1058.284 1058.853 1059.480 1066.261 1057.949 1057.872 1060.449 1057.288 1058.916 1070.734 1057.721 1061.163 1058.707 1063.764 1058.168 1055.480 1058.163 1056.382 1057.475 1053.994 1057.469 1059.846 1056.907 1057.566 1064.789 1058.932 1057.104 1059.862 1063.245 1063.807 1058.251 1062.368 1057.255 1056.883 1062.837 1061.034 1065.049 1081.838 1063.916 1060.648 1064.965 1061.997 1059.894 1058.147 1061.602 1059.330 1060.197 1058.978 1057.749 1068.203 1059.668 1067.225 1066.260 1064.961 1073.805 1058.324 1064.218 1064.239 1060.273 1072.899 1060.603 1060.214 1060.679 1061.487 1067.550 1063.960 1062.382 1065.179 1061.191 1062.206 1062.839 1064.233 1063.483 1062.739 1061.453 1061.564 1060.569 1066.895 1061.141 1061.990 1072.568 1061.336 1062.863 1061.734 1061.387 1063.705 1065.671 1063.626 1063.405 1069.086 1067.315 1064.280 1064.253 1072.498 1069.618 1073.481 1066.146 1065.156 1066.569 1069.087 1070.952 1068.636 1066.652 1066.543 1068.589 1078.129 1072.177 1065.072 1071.996 1071.493 1074.658 1073.065 1067.400 1071.010 1067.950 1068.359 1074.065 1069.839 1069.203 1071.306 1072.679 1075.005 1069.585 1069.324 1067.568 1071.044 1081.015 1071.417 1066.745 1067.782 1070.130 1073.593 1070.909 1068.187 1071.001 1065.870 1076.092 1070.039 1064.979 1069.370 1067.066 1075.138 1067.733 1068.248 1067.348 1068.124 1067.869 1069.331 1069.797 1069.345 1069.812 1065.730 1072.177 1071.756 1074.784 1069.839 1073.148 1076.120 1072.412 1083.861 1072.656 1076.071 1075.996 1072.616 1077.665 1074.445 1070.001 1075.455 1070.316 1075.523 1072.677 1072.240 1075.903 1069.046 1071.413 1079.986 1070.713 1072.143 1074.102 1089.621 1080.394 1075.936 1083.540 1079.709 1081.883 
DATE 2015:209:19:32:53 obsn  17 az 245 el 50 freq_MHz  1421.5000 Tsys 188.600 Tant 965.141 vlsr    9.45 glat 30.170 glon 205.833 source Sun 
Fstart 1420.497 fstop 1422.503 spacing 0.009375 bw    2.400 fbw    2.000 MHz nfreq 256 nsam 1048576 npoint 214 integ    42 sigma    0.302 bsw 0
Spectrum 
1066.669 1066.882 1060.712 1056.206 1062.802 1064.020 1061.817 1059.144 1062.249 1065.758 1064.114 1061.520 1068.024 1064.433 1066.411 1063.146 1070.297 1063.311 1062.742 1066.040 1065.330 1064.361 1065.357 1062.068 1066.384 1063.943 1064.726 1067.232 1064.481 1062.710 1063.113 1064.137 1070.824 1061.730 1061.694 1064.536 1061.375 1062.905 1074.919 1061.870 1065.462 1062.454 1067.853 1062.245 1059.525 1061.904 1060.348 1061.240 1058.595 1060.933 1064.115 1061.664 1061.839 1069.144 1063.376 1061.022 1063.797 1067.497 1068.624 1062.580 1066.265 1061.645 1061.135 1067.168 1064.681 1069.390 1086.450 1068.159 1064.815 1068.763 1066.216 1064.190 1062.833 1065.799 1063.196 1064.287 1063.436 1062.195 1071.705 1064.326 1071.149 1069.873 1069.847 1077.457 1062.844 1068.986 1068.556 1063.790 1077.437 1064.694 1064.207 1064.806 1065.606 1071.920 1067.723 1066.681 1069.053 1064.942 1066.332 1067.701 1069.251 1067.766 1067.121 1066.259 1066.054 1065.254 1070.757 1065.989 1066.487 1077.178 1066.150 1066.630 1065.829 1065.473 1068.423 1069.293 1068.450 1067.934 1072.792 1071.610 1068.559 1068.413 1077.317 1073.738 1077.558 1070.277 1069.692 1071.299 1073.254 1075.425 1073.215 1071.152 1071.273 1072.635 1082.068 1075.257 1069.661 1076.684 1075.833 1078.399 1077.558 1072.237 1075.834 1073.096 1072.652 1078.830 1074.688 1073.550 1075.609 1076.700 1079.715 1074.496 1074.057 1071.681 1075.652 1085.919 1075.263 1071.245 1072.329 1074.606 1078.253 1074.488 1072.846 1075.468 1070.326 1079.775 1074.187 1070.279 1073.339 1072.343 1079.718 1071.932 1073.050 1071.497 1072.366 1072.964 1073.964 1073.452 1073.024 1074.008 1070.614 1075.801 1076.629 1078.547 1073.903 1077.207 1080.555 1077.335 1088.326 1076.995 1080.006 1080.716 1076.362 1081.658 1079.007 1074.728 1080.412 1074.193 1080.739 1075.985 1076.868 1080.821 1073.524 1075.799 1085.192 1075.980 1076.623 1078.860 1094.904 1084.945 1080.126 1088.049 1084.800 1086.178 
DATE 2015:209:19:33:07 obsn  18 az 245 el 50 freq_MHz  1421.5000 Tsys 188.600 Tant 944.099 vlsr    9.45 glat 30.170 glon 205.833 source Sun 
Fstart 1420.497 fstop 1422.503 spacing 0.009375 bw    2.400 fbw    2.000 MHz nfreq 256 nsam 1048576 npoint 214 integ    44 sigma    0.295 bsw 0
Spectrum 
1069.371 1070.151 1063.637 1059.311 1065.811 1067.523 1064.731 1062.141 1065.772 1068.625 1067.167 1064.688 1071.474 1067.426 1069.564 1065.953 1073.736 1066.601 1065.419 1069.106 1068.488 1068.184 1068.571 1066.030 1069.985 1067.837 1068.168 1070.749 1067.770 1066.138 1066.345 1067.105 1074.840 1065.219 1065.227 1067.950 1065.134 1066.995 1078.169 1065.905 1068.969 1065.923 1071.020 1065.913 1063.060 1065.501 1063.797 1064.872 1062.088 1064.224 1067.369 1064.373 1065.215 1072.574 1067.464 1064.671 1066.936 1070.813 1071.519 1066.319 1069.812 1065.534 1065.133 1070.319 1067.359 1072.535 1089.961 1071.474 1068.022 1071.764 1069.247 1066.851 1066.120 1069.418 1067.133 1067.321 1066.941 1065.822 1075.497 1067.657 1075.039 1073.380 1071.926 1080.776 1066.541 1072.529 1073.133 1067.652 1080.793 1068.285 1067.322 1068.070 1068.492 1074.887 1071.258 1069.655 1071.944 1068.008 1069.481 1070.115 1072.969 1071.488 1071.176 1069.959 1069.560 1069.286 1075.099 1069.642 1069.908 1080.188 1070.027 1070.331 1070.055 1068.995 1071.897 1072.708 1071.907 1071.399 1076.340 1075.749 1071.765 1072.540 1080.790 1077.461 1081.646 1073.661 1073.404 1075.508 1076.984 1078.699 1076.550 1074.294 1075.065 1075.804 1086.333 1078.198 1072.951 1080.298 1079.117 1082.025 1080.113 1074.990 1079.133 1076.827 1076.180 1082.767 1078.161 1077.062 1079.262 1080.157 1083.186 1078.235 1077.906 1075.368 1079.237 1089.463 1078.727 1074.732 1075.353 1077.689 1081.661 1078.445 1076.021 1078.978 1073.475 1083.036 1077.206 1073.714 1076.715 1075.849 1083.481 1075.587 1076.184 1075.019 1076.152 1076.743 1077.891 1076.933 1076.213 1078.600 1073.854 1079.656 1079.602 1082.084 1077.667 1081.148 1083.788 1080.671 1092.854 1080.146 1083.569 1084.056 1079.850 1086.142 1081.918 1077.926 1083.908 1078.814 1084.375 1079.236 1081.062 1084.919 1077.958 1078.547 1089.352 1079.918 1079.637 1082.111 1098.443 1089.105 1084.333 1091.615 1088.515 1089.716 
DATE 2015:209:19:33:20 obsn  19 az 245 el 50 freq_MHz  1421.5000 Tsys 188.600 Tant 957.883 vlsr    9.45 glat 30.170 glon 205.833 source Sun 
Fstart 1420.497 fstop 1422.503 spacing 0.009375 bw    2.400 fbw    2.000 MHz nfreq 256 nsam 1048576 npoint 214 integ    46 sigma    0.288 bsw 0
Spectrum 
1072.469 1072.838 1066.012 1062.758 1068.421 1070.573 1067.474 1064.540 1068.527 1071.515 1069.397 1067.391 1074.520 1069.847 1072.482 1068.783 1076.657 1069.635 1068.073 1071.937 1071.319 1070.708 1071.793 1069.200 1072.596 1070.544 1070.356 1073.612 1071.010 1068.545 1069.022 1069.537 1077.867 1067.743 1068.065 1071.161 1067.902 1070.622 1081.356 1068.670 1073.091 1068.582 1074.115 1068.897 1065.666 1068.277 1066.282 1067.561 1065.276 1066.849 1070.451 1068.402 1068.277 1075.475 1069.590 1067.589 1070.418 1074.071 1074.095 1069.257 1072.974 1069.272 1068.126 1073.801 1070.540 1075.615 1092.336 1074.721 1071.047 1074.933 1072.203 1070.018 1069.009 1072.355 1070.475 1070.151 1070.201 1069.275 1077.772 1070.577 1077.986 1077.050 1074.669 1084.006 1069.648 1075.817 1076.078 1070.915 1083.163 1071.400 1070.821 1071.682 1070.659 1077.951 1074.005 1072.087 1076.394 1071.937 1071.943 1072.601 1075.616 1074.698 1074.960 1073.198 1072.314 1072.276 1078.491 1072.777 1072.560 1082.800 1072.775 1073.589 1073.182 1072.280 1074.651 1076.122 1074.780 1074.577 1079.274 1078.977 1075.088 1075.621 1083.206 1080.876 1084.907 1075.993 1076.350 1078.714 1079.353 1081.848 1079.717 1077.472 1078.889 1079.153 1088.898 1081.479 1076.152 1083.315 1082.205 1085.044 1083.154 1078.471 1081.951 1079.675 1079.310 1086.003 1081.417 1080.403 1082.038 1083.576 1086.364 1081.312 1080.911 1078.546 1082.226 1093.249 1081.678 1077.629 1078.378 1081.555 1084.675 1081.567 1078.868 1081.695 1076.633 1086.238 1081.158 1076.949 1079.014 1079.189 1087.112 1078.272 1079.393 1078.010 1079.145 1080.485 1081.165 1080.118 1079.929 1082.162 1076.984 1082.672 1082.529 1084.499 1081.192 1084.602 1086.764 1084.258 1095.398 1083.376 1086.429 1087.424 1083.196 1089.304 1085.109 1081.451 1086.942 1082.268 1087.819 1081.564 1083.813 1087.694 1081.970 1082.314 1092.030 1083.327 1082.772 1085.040 1101.032 1092.476 1087.222 1095.148 1091.285 1092.002 
DATE 2015:209:19:33:33 obsn  20 az 245 el 50 freq_MHz  1421.5000 Tsys 188.600 Tant 964.227 vlsr    9.45 glat 30.171 glon 205.833 source Sun 
Fstart 1420.497 fstop 1422.503 spacing 0.009375 bw    2.400 fbw    2.000 MHz nfreq 256 nsam 1048576 npoint 214 integ    48 sigma    0.281 bsw 0
Spectrum 
1075.941 1076.646 1069.070 1065.708 1071.542 1073.799 1070.628 1068.276 1071.628 1073.864 1072.681 1070.874 1077.248 1074.267 1076.000 1071.741 1079.582 1072.869 1070.970 1074.712 1073.548 1073.525 1074.430 1072.489 1075.634 1074.007 1072.802 1076.869 1074.046 1071.604 1071.793 1072.507 1080.639 1070.996 1071.083 1074.301 1070.870 1073.800 1083.703 1071.451 1076.601 1071.440 1077.383 1072.029 1068.767 1071.569 1068.974 1070.126 1068.856 1070.193 1073.183 1071.274 1071.505 1078.367 1071.888 1070.565 1073.392 1077.229 1076.578 1072.938 1076.005 1072.101 1071.135 1076.850 1073.709 1078.588 1096.061 1078.223 1074.216 1077.736 1074.902 1073.109 1072.036 1075.290 1073.111 1073.614 1072.969 1072.305 1081.089 1074.104 1081.053 1079.866 1077.085 1086.848 1073.375 1078.571 1079.396 1074.329 1086.420 1074.766 1073.872 1075.147 1074.185 1080.543 1076.915 1074.765 1079.192 1074.855 1075.562 1076.130 1078.776 1078.152 1077.894 1076.340 1075.661 1075.228 1081.110 1076.234 1075.505 1085.637 1075.711 1076.514 1076.529 1075.205 1077.605 1079.335 1078.208 1077.699 1082.840 1081.957 1078.058 1078.306 1086.876 1084.102 1088.045 1079.788 1079.255 1081.627 1082.575 1085.189 1082.465 1080.674 1082.226 1082.634 1091.531 1084.629 1079.403 1086.289 1085.284 1087.702 1086.270 1082.092 1084.782 1083.100 1082.535 1089.488 1084.316 1083.851 1085.544 1086.533 1090.118 1084.105 1084.255 1081.789 1085.408 1095.880 1084.514 1080.754 1081.339 1085.301 1088.217 1084.512 1082.131 1084.487 1080.222 1090.274 1084.720 1080.055 1082.376 1082.606 1090.560 1081.032 1082.231 1081.596 1082.190 1083.680 1084.615 1083.640 1082.554 1085.177 1080.426 1085.590 1085.914 1088.370 1085.214 1088.035 1090.752 1087.443 1098.642 1087.380 1090.040 1091.005 1086.154 1092.091 1088.759 1084.381 1090.014 1085.746 1090.272 1085.124 1087.077 1091.335 1085.544 1085.772 1095.603 1087.101 1086.153 1088.255 1105.020 1095.767 1090.311 1098.807 1094.997 1095.179 
DATE 2015:209:19:33:46 obsn  21 az 245 el 50 freq_MHz  1421.5000 Tsys 188.600 Tant 965.576 vlsr    9.45 glat 30.171 glon 205.833 source Sun 
Fstart 1420.497 fstop 1422.503 spacing 0.009375 bw    2.400 fbw    2.000 MHz nfreq 256 nsam 1048576 npoint 214 integ    50 sigma    0.275 bsw 0
Spectrum 
1079.058 1079.514 1071.979 1068.570 1073.762 1077.094 1073.863 1071.441 1075.194 1077.109 1075.390 1073.935 1080.303 1077.715 1078.158 1074.420 1082.314 1076.120 1074.149 1077.540 1076.024 1076.248 1077.186 1075.885 1078.559 1076.494 1076.213 1079.919 1077.392 1074.913 1074.867 1075.444 1083.185 1074.392 1073.836 1077.782 1073.859 1076.356 1085.942 1074.306 1079.409 1074.388 1080.564 1074.786 1072.359 1074.788 1071.787 1073.503 1071.926 1073.370 1076.088 1074.300 1074.062 1081.469 1074.938 1073.464 1076.300 1080.073 1078.870 1075.203 1078.797 1074.725 1074.079 1080.401 1076.693 1081.848 1098.261 1081.214 1077.575 1080.724 1077.187 1075.775 1075.440 1078.710 1075.756 1076.271 1076.095 1075.309 1084.336 1077.781 1083.562 1082.460 1079.880 1090.265 1076.104 1081.072 1082.234 1077.462 1089.220 1078.414 1077.364 1078.415 1077.640 1084.084 1080.035 1077.459 1082.313 1077.781 1078.890 1079.120 1080.868 1081.731 1081.433 1078.890 1079.335 1078.277 1084.149 1079.330 1079.080 1088.583 1079.418 1079.815 1079.478 1078.393 1080.958 1083.128 1081.558 1080.767 1086.571 1084.386 1080.763 1081.140 1090.323 1087.394 1091.207 1083.289 1082.438 1084.227 1085.641 1088.138 1085.810 1084.086 1085.590 1085.530 1095.143 1088.230 1082.555 1089.760 1088.025 1090.779 1089.661 1085.283 1088.341 1087.146 1085.125 1092.786 1087.671 1086.945 1089.091 1089.292 1092.949 1087.281 1088.027 1084.911 1087.939 1099.356 1087.607 1084.362 1084.617 1088.799 1092.268 1087.023 1085.466 1087.977 1083.414 1093.430 1088.380 1082.858 1085.815 1086.348 1093.658 1084.297 1085.431 1084.790 1084.940 1086.836 1087.608 1086.449 1085.950 1088.553 1083.885 1088.528 1088.636 1091.430 1088.343 1091.347 1094.009 1090.794 1101.504 1090.357 1092.906 1094.304 1089.924 1095.703 1092.047 1087.442 1093.767 1088.948 1093.404 1088.756 1090.274 1094.225 1088.765 1089.455 1098.688 1090.328 1088.926 1091.201 1108.436 1098.594 1093.136 1101.770 1098.128 1098.260 
DATE 2015:209:19:33:59 obsn  22 az 245 el 50 freq_MHz  1421.5000 Tsys 188.600 Tant 978.227 vlsr    9.45 glat 30.171 glon 205.833 source Sun 
Fstart 1420.497 fstop 1422.503 spacing 0.009375 bw    2.400 fbw    2.000 MHz nfreq 256 nsam 1048576 npoint 214 integ    52 sigma    0.269 bsw 0
Spectrum 
1081.756 1082.083 1074.945 1071.471 1076.445 1079.971 1076.568 1074.496 1077.698 1080.447 1078.037 1076.952 1083.447 1080.430 1080.867 1077.661 1085.320 1079.438 1076.937 1079.906 1079.077 1078.681 1079.899 1078.497 1081.021 1079.975 1079.506 1082.502 1080.266 1076.858 1077.723 1078.456 1086.331 1077.604 1076.804 1080.780 1076.640 1079.495 1088.602 1076.943 1082.295 1077.169 1082.329 1077.161 1074.926 1077.334 1075.103 1076.536 1074.701 1076.177 1079.111 1077.107 1076.706 1083.798 1077.480 1076.223 1079.345 1083.217 1081.079 1077.770 1081.368 1077.782 1077.469 1083.400 1079.060 1084.046 1101.175 1084.572 1080.859 1083.371 1079.814 1078.337 1078.427 1081.587 1078.666 1078.919 1079.135 1078.305 1087.351 1081.133 1086.501 1085.703 1082.719 1093.171 1078.806 1084.559 1085.164 1080.640 1091.489 1081.079 1080.391 1080.694 1080.244 1087.159 1083.659 1080.120 1084.856 1080.535 1081.161 1082.166 1083.984 1084.292 1084.277 1081.591 1082.239 1081.268 1087.151 1082.341 1081.454 1091.333 1082.589 1082.794 1082.767 1082.006 1084.279 1085.857 1084.217 1083.509 1089.603 1086.695 1083.988 1083.926 1093.095 1090.105 1093.766 1086.000 1085.424 1086.769 1088.702 1091.288 1088.469 1087.707 1088.243 1088.149 1098.091 1090.734 1086.343 1093.016 1090.771 1094.072 1092.723 1088.753 1091.043 1089.977 1088.082 1095.716 1090.743 1090.353 1092.236 1092.446 1096.011 1090.706 1091.063 1088.395 1090.904 1102.568 1090.967 1087.562 1087.569 1091.776 1095.154 1090.350 1087.755 1091.139 1086.406 1097.509 1091.617 1086.244 1089.116 1088.959 1097.334 1087.926 1088.734 1087.820 1087.806 1089.730 1090.658 1089.714 1089.535 1091.692 1086.858 1091.901 1092.613 1094.854 1091.953 1094.937 1097.794 1093.831 1104.798 1093.790 1096.247 1096.541 1092.997 1099.135 1095.215 1090.636 1097.279 1091.914 1096.265 1092.399 1093.084 1097.411 1091.619 1092.573 1101.681 1093.514 1092.786 1094.378 1111.170 1101.474 1096.461 1104.417 1101.449 1101.355 
DATE 2015:209:19:34:13 obsn  23 az 245 el 50 freq_MHz  1421.5000 Tsys 188.600 Tant 980.452 vlsr    9.45 glat 30.171 glon 205.834 source Sun 
Fstart 1420.497 fstop 1422.503 spacing 0.009375 bw    2.400 fbw    2.000 MHz nfreq 256 nsam 1048576 npoint 214 integ    55 sigma    0.264 bsw 0
Spectrum 
1084.641 1083.802 1078.209 1074.992 1079.368 1083.065 1080.241 1077.566 1080.947 1083.774 1080.548 1079.964 1086.563 1083.567 1083.845 1080.872 1088.135 1082.390 1079.630 1083.240 1082.247 1081.873 1082.836 1081.447 1084.411 1083.036 1082.480 1085.291 1083.163 1080.405 1080.760 1081.265 1089.422 1081.037 1080.040 1084.147 1079.329 1082.925 1092.342 1080.112 1085.058 1080.301 1085.171 1079.973 1077.957 1080.626 1078.128 1080.026 1077.879 1079.835 1081.705 1080.371 1079.812 1087.176 1080.718 1078.993 1081.912 1085.933 1084.032 1080.896 1084.392 1080.829 1080.446 1086.406 1082.072 1087.137 1104.187 1087.451 1084.087 1087.133 1083.064 1081.370 1081.682 1084.436 1081.851 1081.684 1082.918 1081.784 1090.096 1084.351 1089.406 1089.099 1086.463 1096.926 1081.932 1087.681 1088.596 1083.613 1095.208 1084.159 1083.606 1083.946 1083.103 1089.979 1086.861 1083.158 1087.689 1084.119 1084.100 1085.438 1086.948 1087.434 1087.413 1085.383 1085.408 1084.917 1090.550 1086.032 1084.625 1094.685 1085.488 1085.801 1086.169 1085.068 1088.032 1089.043 1087.322 1087.025 1092.770 1090.092 1087.291 1086.934 1096.837 1092.757 1096.715 1089.591 1088.454 1090.189 1091.583 1094.441 1091.809 1091.227 1091.498 1090.812 1101.017 1093.747 1089.736 1095.750 1093.646 1097.454 1096.069 1092.905 1094.524 1093.443 1091.620 1099.018 1094.182 1093.983 1095.477 1095.811 1099.063 1093.711 1094.158 1091.654 1094.343 1105.393 1094.167 1091.072 1091.360 1095.793 1097.806 1092.944 1091.485 1094.152 1089.920 1100.990 1094.887 1089.416 1092.266 1092.068 1100.948 1091.350 1092.214 1091.112 1091.174 1093.131 1093.864 1092.801 1092.801 1094.915 1090.752 1095.502 1096.150 1097.910 1095.135 1098.104 1100.896 1097.661 1108.051 1097.482 1099.657 1099.891 1096.302 1102.034 1098.449 1094.134 1100.885 1094.764 1099.704 1095.766 1096.371 1100.788 1094.721 1095.629 1104.907 1096.931 1095.897 1097.867 1115.116 1105.083 1099.562 1107.862 1104.953 1104.695 
DATE 2015:209:19:34:26 obsn  24 az 245 el 50 freq_MHz  1421.5000 Tsys 188.600 Tant 977.302 vlsr    9.45 glat 30.171 glon 205.834 source Sun 
Fstart 1420.497 fstop 1422.503 spacing 0.009375 bw    2.400 fbw    2.000 MHz nfreq 256 nsam 1048576 npoint 214 integ    57 sigma    0.258 bsw 0
Spectrum 
1088.108 1086.219 1080.908 1078.273 1082.460 1086.197 1083.283 1080.475 1084.031 1086.499 1083.678 1082.725 1089.851 1086.658 1086.542 1083.424 1091.248 1085.189 1082.592 1086.676 1085.124 1084.923 1085.498 1084.551 1086.970 1085.636 1085.584 1088.073 1086.849 1083.122 1084.399 1084.606 1092.682 1084.217 1082.671 1087.056 1082.446 1086.077 1095.474 1083.626 1088.317 1083.109 1088.131 1082.518 1081.051 1083.319 1081.171 1083.200 1080.862 1082.960 1084.865 1083.928 1082.598 1090.137 1083.747 1081.757 1085.147 1088.622 1087.037 1084.041 1086.904 1083.798 1083.319 1089.438 1084.651 1089.904 1106.913 1090.537 1087.233 1090.372 1086.557 1084.468 1084.488 1087.899 1084.979 1084.402 1086.036 1085.462 1093.294 1087.676 1092.356 1092.068 1089.301 1099.547 1084.863 1091.002 1092.028 1086.748 1098.265 1087.511 1086.299 1087.354 1086.248 1093.563 1090.328 1086.719 1090.846 1087.704 1086.689 1088.579 1090.067 1091.039 1090.638 1088.515 1088.525 1087.705 1093.718 1089.011 1087.613 1098.356 1088.503 1088.760 1089.805 1088.790 1090.677 1092.159 1090.137 1090.118 1096.250 1092.542 1090.602 1089.901 1099.741 1095.766 1099.819 1092.506 1091.980 1093.593 1094.649 1097.748 1094.632 1094.096 1094.391 1094.030 1104.421 1096.879 1093.176 1099.190 1096.764 1100.935 1099.168 1096.038 1097.739 1096.388 1094.776 1102.494 1097.047 1097.097 1098.920 1098.838 1102.030 1096.974 1097.353 1094.793 1097.248 1108.476 1097.281 1094.279 1094.690 1098.966 1101.043 1096.018 1094.843 1097.508 1092.944 1104.742 1098.088 1092.649 1095.249 1095.722 1103.828 1094.967 1095.836 1094.007 1094.365 1096.132 1096.792 1096.059 1095.772 1098.193 1094.531 1098.266 1099.106 1101.844 1097.762 1100.414 1104.094 1100.818 1111.696 1101.016 1103.115 1103.780 1099.917 1104.811 1101.877 1097.601 1104.066 1098.121 1102.508 1098.982 1099.636 1104.507 1097.745 1098.472 1108.299 1099.795 1098.942 1100.799 1118.529 1108.083 1103.189 1111.335 1108.570 1107.174 
DATE 2015:209:19:34:39 obsn  25 az 245 el 50 freq_MHz  1421.5000 Tsys 188.600 Tant 986.455 vlsr    9.45 glat 30.171 glon 205.834 source Sun 
Fstart 1420.497 fstop 1422.503 spacing 0.009375 bw    2.400 fbw    2.000 MHz nfreq 256 nsam 1048576 npoint 214 integ    59 sigma    0.254 bsw 0
Spectrum 
1090.497 1088.926 1083.376 1080.391 1084.797 1089.827 1086.005 1083.303 1086.507 1088.443 1086.223 1085.415 1092.167 1088.971 1089.359 1086.615 1093.922 1087.890 1084.853 1089.380 1087.989 1088.045 1087.434 1087.026 1089.840 1088.576 1088.315 1090.692 1089.685 1085.478 1086.763 1086.873 1095.137 1086.841 1085.558 1089.572 1085.139 1089.038 1098.200 1086.540 1090.911 1085.472 1090.356 1084.951 1083.801 1086.023 1083.805 1086.238 1083.302 1085.572 1087.672 1086.813 1085.443 1092.437 1086.361 1084.383 1087.814 1091.256 1089.878 1086.871 1089.278 1086.274 1085.933 1091.891 1087.253 1092.991 1109.427 1093.288 1090.306 1093.168 1089.146 1087.594 1087.094 1091.170 1087.826 1087.537 1088.944 1088.260 1096.172 1090.159 1095.192 1094.508 1091.723 1102.294 1086.907 1093.783 1094.570 1089.267 1101.318 1090.236 1088.562 1090.535 1088.937 1096.015 1093.520 1090.148 1093.510 1089.752 1089.513 1091.161 1092.668 1093.285 1093.321 1090.861 1091.003 1090.444 1096.034 1091.910 1090.195 1100.904 1091.650 1091.306 1092.883 1092.029 1093.533 1094.963 1092.745 1093.191 1099.485 1095.679 1093.041 1093.000 1102.692 1098.561 1103.146 1095.224 1094.422 1096.103 1097.360 1100.204 1097.352 1096.824 1097.314 1097.433 1107.020 1099.839 1096.067 1101.559 1099.187 1103.027 1102.106 1098.625 1100.710 1098.690 1097.868 1105.147 1099.952 1099.652 1101.906 1101.543 1104.642 1099.855 1100.311 1097.504 1100.154 1111.052 1099.840 1097.012 1097.952 1101.934 1103.692 1098.904 1097.823 1100.265 1095.903 1107.302 1100.943 1095.337 1098.462 1098.521 1106.418 1097.884 1098.534 1097.163 1096.945 1099.262 1099.579 1098.414 1098.044 1100.697 1097.030 1101.494 1102.402 1104.890 1100.718 1103.548 1107.439 1103.909 1114.506 1103.820 1105.863 1106.196 1102.107 1107.245 1104.517 1100.352 1106.864 1101.039 1105.253 1101.759 1102.211 1107.389 1100.172 1101.153 1110.812 1102.703 1101.699 1103.761 1121.371 1111.177 1105.779 1113.638 1111.321 1109.920 
DATE 2015:209:19:34:54 obsn  26 az 246 el 49 freq_MHz  1421.5000 Tsys 188.600 Tant 833.602 vlsr    9.45 glat 30.171 glon 205.834 source Sun 
Fstart 1420.497 fstop 1422.503 spacing 0.009375 bw    2.400 fbw    2.000 MHz nfreq 256 nsam 1048576 npoint 214 integ    61 sigma    0.249 bsw 0
Spectrum 
1088.139 1087.031 1081.355 1078.729 1082.996 1088.012 1084.175 1081.655 1084.425 1086.708 1084.533 1083.683 1090.024 1086.863 1087.189 1084.688 1092.055 1086.161 1083.653 1087.731 1086.370 1086.026 1085.746 1084.730 1087.393 1086.725 1086.673 1089.456 1087.837 1083.420 1084.915 1084.581 1092.999 1084.669 1084.042 1087.464 1083.358 1087.196 1096.552 1084.661 1089.098 1083.671 1088.789 1082.833 1081.725 1084.298 1082.080 1084.187 1081.387 1083.538 1085.930 1084.666 1083.770 1090.691 1084.423 1082.110 1085.860 1089.846 1088.462 1084.938 1087.074 1084.264 1084.203 1089.795 1085.401 1091.568 1107.397 1091.121 1089.055 1091.603 1087.324 1085.604 1084.818 1088.619 1086.340 1085.383 1086.882 1086.606 1094.343 1087.953 1093.028 1092.311 1090.005 1100.722 1085.618 1091.643 1093.173 1087.327 1099.253 1088.079 1086.872 1088.310 1087.046 1094.215 1091.809 1087.996 1091.464 1087.845 1087.807 1089.684 1090.778 1091.127 1091.352 1089.251 1089.743 1089.018 1094.323 1089.752 1088.710 1098.788 1090.015 1089.681 1091.180 1090.678 1091.203 1092.848 1091.177 1091.527 1097.624 1094.121 1090.850 1091.533 1100.827 1096.695 1100.900 1093.255 1092.962 1094.182 1095.440 1098.339 1095.304 1095.229 1095.639 1095.499 1104.835 1098.426 1094.596 1099.596 1096.933 1101.005 1100.460 1096.561 1098.958 1096.769 1096.227 1103.067 1097.933 1097.779 1099.987 1099.815 1102.346 1098.028 1098.818 1095.724 1098.608 1109.799 1097.734 1095.176 1096.410 1099.862 1101.584 1097.121 1096.029 1098.446 1094.540 1105.480 1098.839 1093.481 1096.598 1097.082 1104.587 1096.427 1097.104 1095.666 1095.179 1097.120 1097.696 1096.358 1096.742 1098.980 1095.280 1099.396 1100.490 1102.932 1098.653 1101.736 1105.515 1102.262 1112.927 1102.443 1104.115 1104.425 1100.408 1105.216 1102.240 1098.505 1104.872 1098.919 1103.755 1100.034 1100.729 1105.282 1098.655 1099.670 1108.823 1101.019 1099.569 1101.562 1119.535 1109.474 1104.091 1111.490 1109.702 1107.905 
DATE 2015:209:19:35:07 obsn  27 az 246 el 49 freq_MHz  1421.5000 Tsys 188.600 Tant 852.652 vlsr    9.45 glat 30.171 glon 205.834 source Sun 
Fstart 1420.497 fstop 1422.503 spacing 0.009375 bw    2.400 fbw    2.000 MHz nfreq 256 nsam 1048576 npoint 214 integ    63 sigma    0.245 bsw 0
Spectrum 
1085.883 1085.312 1079.371 1076.675 1080.586 1086.200 1082.008 1079.660 1082.062 1084.432 1082.280 1081.570 1087.894 1084.378 1085.067 1082.326 1089.862 1083.949 1081.840 1086.018 1084.433 1084.215 1083.722 1082.860 1085.457 1084.990 1084.214 1087.514 1085.438 1081.234 1082.802 1082.112 1091.388 1082.511 1082.286 1085.057 1081.391 1085.284 1094.349 1082.736 1086.709 1081.508 1086.495 1081.084 1080.165 1082.380 1079.985 1081.929 1079.368 1081.699 1083.794 1082.708 1081.471 1088.661 1082.214 1080.251 1083.974 1087.306 1086.718 1082.804 1084.865 1082.478 1082.326 1087.594 1083.280 1089.525 1105.634 1089.221 1086.626 1089.963 1085.536 1083.402 1082.344 1086.778 1084.640 1083.409 1085.068 1084.984 1091.805 1086.026 1091.422 1089.817 1088.110 1098.453 1083.346 1089.445 1090.903 1085.011 1097.204 1086.167 1085.169 1086.496 1084.645 1091.756 1090.161 1085.781 1089.575 1085.602 1085.454 1087.869 1088.773 1089.085 1089.936 1087.107 1087.493 1087.132 1092.192 1087.754 1086.201 1096.670 1087.797 1087.541 1088.958 1088.117 1089.248 1091.229 1089.008 1089.536 1095.316 1091.966 1088.409 1089.471 1098.412 1094.530 1098.531 1091.172 1091.255 1092.620 1093.033 1096.312 1093.298 1093.459 1093.323 1093.037 1102.471 1096.106 1092.422 1097.711 1094.202 1099.175 1098.370 1094.600 1096.880 1094.898 1094.209 1100.531 1095.300 1095.271 1098.528 1097.535 1100.531 1096.021 1096.767 1093.543 1096.444 1107.674 1095.812 1093.115 1094.414 1096.946 1099.276 1095.175 1094.278 1096.161 1092.445 1102.783 1096.475 1091.201 1094.102 1094.605 1102.266 1094.411 1095.386 1093.587 1093.052 1095.213 1095.961 1094.380 1094.952 1097.023 1093.317 1097.084 1098.181 1101.191 1096.387 1099.502 1103.217 1099.861 1110.614 1100.214 1101.557 1102.461 1098.041 1102.922 1100.444 1096.565 1102.764 1096.700 1101.439 1097.873 1098.643 1102.907 1096.608 1097.728 1106.697 1099.117 1097.470 1099.204 1117.990 1107.248 1102.070 1109.228 1107.377 1105.816 
DATE 2015:209:19:35:21 obsn  28 az 246 el 49 freq_MHz  1421.5000 Tsys 188.600 Tant 871.623 vlsr    9.45 glat 30.172 glon 205.834 source Sun 
Fstart 1420.497 fstop 1422.503 spacing 0.009375 bw    2.400 fbw    2.000 MHz nfreq 256 nsam 1048576 npoint 214 integ    66 sigma    0.241 bsw 0
Spectrum 
1084.829 1083.901 1078.192 1075.670 1079.351 1084.891 1081.044 1078.150 1080.811 1083.195 1080.423 1080.448 1086.358 1083.211 1083.603 1080.362 1088.546 1082.366 1080.455 1084.571 1083.190 1083.177 1082.470 1081.383 1084.195 1083.671 1082.861 1085.875 1083.638 1079.882 1081.052 1081.045 1089.920 1080.816 1081.354 1083.479 1079.792 1083.540 1092.657 1081.444 1085.211 1079.864 1085.060 1079.501 1078.695 1081.259 1078.708 1080.951 1078.254 1079.940 1082.427 1081.156 1080.063 1086.834 1080.997 1079.169 1082.747 1085.811 1084.881 1081.689 1083.352 1081.047 1080.950 1086.101 1081.894 1087.810 1104.251 1087.920 1085.287 1088.761 1083.622 1082.036 1080.737 1085.624 1083.201 1081.977 1083.579 1083.678 1089.800 1084.755 1090.066 1088.093 1086.530 1096.877 1082.000 1087.948 1089.643 1083.370 1095.470 1085.121 1084.122 1084.848 1083.229 1090.856 1088.650 1084.886 1088.192 1083.965 1083.967 1086.296 1087.434 1087.511 1088.792 1085.656 1086.213 1085.830 1090.714 1086.540 1084.537 1095.015 1086.459 1086.179 1087.229 1086.947 1087.752 1090.036 1087.735 1087.735 1093.930 1090.426 1086.852 1088.169 1096.399 1093.411 1097.285 1089.272 1089.885 1091.399 1091.975 1094.745 1091.601 1091.911 1091.809 1091.564 1101.092 1094.836 1091.148 1096.340 1092.682 1097.579 1096.714 1093.893 1095.704 1093.407 1092.425 1099.417 1093.926 1093.850 1097.254 1095.454 1099.056 1094.969 1095.611 1092.130 1095.260 1105.774 1094.364 1091.889 1092.940 1095.431 1098.213 1093.914 1092.987 1095.026 1091.137 1101.382 1095.127 1089.929 1092.503 1092.998 1101.257 1093.088 1093.926 1092.364 1092.028 1094.123 1094.788 1093.133 1093.283 1095.487 1091.719 1095.692 1096.957 1099.577 1094.715 1097.560 1101.794 1098.377 1109.397 1098.798 1100.295 1101.033 1096.534 1101.890 1099.013 1094.694 1101.279 1094.682 1099.947 1096.460 1096.980 1101.228 1094.874 1096.245 1105.377 1097.704 1096.242 1097.614 1116.345 1105.983 1100.855 1107.777 1106.113 1104.841 
DATE 2015:209:19:35:34 obsn  29 az 246 el 49 freq_MHz  1421.5000 Tsys 188.600 Tant 879.245 vlsr    9.45 glat 30.172 glon 205.834 source Sun 
Fstart 1420.497 fstop 1422.503 spacing 0.009375 bw    2.400 fbw    2.000 MHz nfreq 256 nsam 1048576 npoint 214 integ    68 sigma    0.237 bsw 0
Spectrum 
1083.680 1083.026 1077.089 1075.433 1078.292 1083.690 1080.115 1077.801 1080.285 1082.667 1079.529 1079.661 1085.687 1082.489 1082.620 1079.914 1087.473 1081.539 1079.530 1083.810 1082.189 1082.308 1081.800 1080.397 1083.545 1082.728 1081.719 1084.884 1082.796 1078.625 1080.088 1080.319 1088.869 1080.797 1080.512 1082.841 1078.578 1082.529 1091.926 1080.732 1083.934 1078.696 1084.726 1078.908 1077.740 1080.558 1077.908 1080.439 1077.324 1079.242 1081.056 1080.230 1079.116 1086.000 1080.168 1078.621 1081.842 1084.690 1083.649 1080.688 1082.410 1080.513 1080.220 1084.896 1081.018 1087.302 1103.053 1087.104 1084.643 1088.219 1083.028 1081.129 1080.341 1085.126 1082.277 1081.214 1082.855 1082.760 1089.123 1084.302 1089.276 1087.265 1085.948 1096.251 1081.148 1086.954 1088.398 1082.598 1094.021 1084.158 1083.338 1084.167 1082.442 1090.130 1088.269 1083.455 1087.428 1083.061 1082.869 1085.277 1085.871 1086.596 1087.820 1084.829 1085.553 1085.355 1089.813 1085.714 1083.761 1094.053 1085.323 1085.442 1086.193 1086.035 1086.971 1088.900 1086.402 1087.025 1092.817 1089.312 1085.700 1087.367 1095.378 1092.371 1096.135 1088.478 1088.494 1090.122 1090.894 1093.442 1090.981 1091.111 1091.073 1090.278 1100.122 1093.509 1089.733 1095.262 1092.020 1096.437 1095.789 1092.671 1094.639 1092.042 1091.611 1098.257 1092.932 1093.016 1096.312 1094.279 1098.017 1094.321 1094.758 1091.438 1094.359 1104.677 1093.387 1090.758 1092.032 1094.586 1097.302 1092.485 1092.201 1093.992 1090.382 1100.430 1094.036 1089.440 1091.534 1092.110 1100.383 1091.704 1092.728 1091.381 1091.021 1093.219 1093.945 1092.144 1092.232 1095.010 1090.621 1094.819 1095.902 1099.011 1094.035 1096.867 1100.687 1097.407 1108.117 1097.659 1099.616 1100.189 1095.880 1101.094 1098.379 1093.819 1100.316 1093.719 1098.887 1095.324 1096.139 1100.042 1094.396 1095.631 1104.779 1096.946 1095.474 1096.986 1115.671 1104.977 1100.116 1107.052 1104.898 1103.960 
DATE 2015:209:19:35:47 obsn  30 az 246 el 49 freq_MHz  1421.5000 Tsys 188.600 Tant 885.085 vlsr    9.45 glat 30.172 glon 205.834 source Sun 
Fstart 1420.497 fstop 1422.503 spacing 0.009375 bw    2.400 fbw    2.000 MHz nfreq 256 nsam 1048576 npoint 214 integ    70 sigma    0.233 bsw 0
Spectrum 
1082.809 1081.902 1076.527 1074.834 1077.390 1082.772 1079.104 1077.148 1079.542 1081.631 1078.925 1078.660 1084.717 1082.017 1081.309 1079.113 1086.241 1080.851 1078.969 1083.019 1081.412 1081.147 1080.957 1079.925 1082.625 1082.034 1080.869 1083.905 1081.619 1077.640 1079.261 1079.719 1088.179 1080.032 1079.341 1082.317 1077.715 1081.671 1090.936 1079.964 1083.040 1077.806 1083.449 1077.929 1077.350 1079.684 1077.345 1079.546 1077.054 1078.476 1080.096 1078.733 1078.031 1085.662 1079.391 1078.324 1081.110 1084.075 1082.738 1079.877 1081.833 1079.898 1079.251 1083.890 1080.458 1086.641 1102.295 1086.378 1083.748 1087.278 1082.471 1080.554 1079.703 1084.681 1081.497 1080.557 1081.676 1081.979 1088.257 1083.327 1088.086 1086.509 1085.101 1095.482 1080.239 1086.290 1087.578 1081.463 1093.142 1083.585 1082.380 1083.584 1081.888 1088.889 1087.226 1082.675 1086.740 1082.562 1081.903 1084.336 1084.903 1085.595 1086.756 1084.203 1084.447 1084.291 1089.100 1084.935 1082.978 1092.838 1084.622 1084.444 1085.476 1085.289 1086.014 1087.712 1085.655 1086.288 1091.999 1088.391 1084.806 1086.913 1094.647 1091.568 1095.562 1087.679 1087.563 1089.685 1089.772 1092.677 1090.026 1090.098 1090.252 1089.723 1099.385 1092.574 1088.873 1094.393 1091.302 1095.189 1094.941 1091.968 1094.005 1091.292 1090.828 1097.461 1091.652 1092.082 1095.641 1093.286 1097.389 1093.346 1094.151 1090.598 1093.578 1103.867 1092.569 1090.017 1091.362 1093.591 1096.167 1091.836 1092.401 1092.943 1089.455 1099.508 1093.301 1088.928 1090.885 1091.008 1099.390 1091.484 1091.853 1090.835 1090.196 1092.530 1093.019 1091.099 1091.328 1094.141 1089.887 1094.276 1095.166 1097.905 1093.519 1095.679 1099.695 1096.723 1106.751 1096.999 1098.914 1099.216 1095.525 1100.158 1097.620 1093.469 1099.785 1093.240 1097.979 1094.647 1095.427 1099.514 1093.957 1094.899 1103.972 1096.551 1094.437 1096.114 1114.820 1104.670 1098.949 1106.175 1104.317 1103.109 
DATE 2015:209:19:36:00 obsn  31 az 246 el 49 freq_MHz  1421.5000 Tsys 188.600 Tant 898.956 vlsr    9.45 glat 30.172 glon 205.834 source Sun 
Fstart 1420.497 fstop 1422.503 spacing 0.009375 bw    2.400 fbw    2.000 MHz nfreq 256 nsam 1048576 npoint 214 integ    72 sigma    0.229 bsw 0
Spectrum 
1082.776 1081.401 1076.446 1074.559 1077.203 1082.361 1078.952 1076.929 1079.255 1080.825 1078.572 1078.537 1084.486 1081.598 1080.911 1078.900 1086.150 1080.365 1078.578 1082.766 1081.486 1080.885 1080.677 1079.857 1082.101 1081.752 1080.407 1083.722 1081.182 1077.781 1078.869 1079.623 1087.754 1079.719 1079.374 1082.121 1077.427 1081.645 1090.243 1079.373 1082.455 1077.534 1083.216 1077.869 1077.001 1079.087 1077.416 1078.794 1076.748 1078.683 1079.844 1078.568 1077.651 1084.975 1078.904 1078.190 1080.790 1083.878 1082.331 1079.454 1081.718 1079.566 1078.504 1083.491 1080.367 1086.036 1101.748 1086.028 1083.295 1087.071 1082.192 1080.182 1079.714 1084.563 1081.349 1080.380 1081.592 1081.735 1088.614 1082.945 1087.615 1086.251 1084.701 1095.417 1080.328 1086.007 1087.580 1081.370 1092.814 1083.427 1081.623 1083.156 1081.598 1088.708 1087.066 1082.505 1086.107 1082.450 1081.777 1084.507 1084.480 1085.148 1086.318 1083.991 1084.320 1084.026 1088.919 1084.601 1082.563 1092.506 1084.001 1084.344 1085.098 1084.834 1085.533 1087.005 1085.133 1085.598 1091.525 1088.495 1084.401 1086.513 1094.041 1091.245 1094.863 1087.527 1087.419 1089.448 1089.333 1092.735 1090.223 1089.633 1089.455 1089.344 1099.123 1091.884 1088.829 1093.837 1090.631 1094.886 1094.676 1091.335 1093.572 1091.013 1090.582 1096.918 1091.213 1091.752 1095.432 1092.462 1097.189 1092.779 1093.888 1090.444 1093.100 1103.257 1092.221 1089.889 1091.333 1093.197 1095.848 1091.213 1091.539 1092.209 1089.267 1099.307 1093.252 1088.831 1090.659 1090.861 1098.983 1091.183 1091.409 1090.365 1089.873 1091.808 1093.048 1091.004 1091.186 1094.181 1089.653 1093.793 1094.443 1097.773 1093.507 1095.276 1099.208 1095.948 1106.453 1096.540 1098.567 1098.724 1095.241 1099.873 1097.137 1093.643 1100.012 1092.813 1097.325 1094.103 1094.625 1099.094 1093.325 1094.382 1103.705 1096.091 1094.145 1095.970 1114.361 1104.571 1098.647 1106.234 1103.799 1102.800 
DATE 2015:209:19:36:13 obsn  32 az 246 el 49 freq_MHz  1421.5000 Tsys 188.600 Tant 904.508 vlsr    9.45 glat 30.172 glon 205.834 source Sun 
Fstart 1420.497 fstop 1422.503 spacing 0.009375 bw    2.400 fbw    2.000 MHz nfreq 256 nsam 1048576 npoint 214 integ    74 sigma    0.226 bsw 0
Spectrum 
1083.013 1081.406 1076.229 1074.652 1077.277 1082.369 1079.055 1076.829 1078.866 1080.852 1078.488 1078.544 1084.490 1082.170 1081.063 1079.197 1086.223 1080.876 1078.784 1083.287 1081.110 1080.818 1081.226 1079.926 1081.870 1081.901 1080.213 1083.930 1081.056 1077.823 1078.984 1079.829 1087.484 1079.576 1079.310 1082.065 1077.662 1081.508 1090.439 1079.243 1082.156 1077.517 1083.551 1078.180 1077.157 1078.936 1077.899 1079.038 1076.553 1078.576 1079.723 1078.894 1077.812 1085.064 1078.998 1078.175 1080.752 1083.899 1082.242 1079.868 1081.647 1079.647 1078.811 1083.586 1080.587 1085.807 1101.711 1086.043 1083.202 1087.000 1082.433 1080.309 1080.068 1084.503 1081.506 1080.763 1081.565 1081.825 1088.913 1082.565 1087.630 1086.233 1084.349 1095.860 1080.363 1085.907 1087.845 1081.726 1093.069 1083.796 1081.580 1083.341 1081.902 1088.623 1087.198 1081.869 1086.486 1082.436 1082.041 1084.503 1084.221 1085.322 1086.309 1084.083 1084.422 1084.253 1089.080 1084.675 1082.984 1092.577 1084.022 1084.640 1085.016 1085.103 1085.757 1087.073 1085.297 1085.800 1091.422 1088.657 1084.508 1086.620 1093.531 1090.952 1094.875 1087.554 1087.459 1089.396 1089.648 1092.548 1089.889 1089.866 1090.210 1089.505 1099.109 1092.138 1089.035 1093.667 1090.382 1094.727 1094.879 1091.563 1093.985 1091.056 1090.435 1096.999 1091.306 1091.792 1095.426 1092.365 1097.479 1092.977 1093.793 1090.153 1092.871 1103.783 1092.285 1089.795 1091.038 1093.237 1095.712 1091.160 1091.320 1092.582 1089.304 1099.388 1093.036 1089.030 1090.759 1090.715 1098.705 1091.104 1091.490 1090.270 1090.100 1091.829 1093.197 1090.768 1091.277 1094.176 1089.669 1093.886 1094.280 1097.886 1093.422 1095.108 1099.197 1096.142 1106.550 1096.622 1098.796 1098.769 1095.304 1099.549 1096.859 1093.400 1100.005 1093.023 1097.474 1094.087 1094.389 1099.173 1093.476 1094.315 1103.971 1095.923 1093.863 1096.132 1114.379 1104.266 1098.936 1106.334 1104.053 1103.132 
DATE 2015:209:19:36:27 obsn  33 az 246 el 49 freq_MHz  1421.5000 Tsys 188.600 Tant 914.191 vlsr    9.45 glat 30.172 glon 205.835 source Sun 
Fstart 1420.497 fstop 1422.503 spacing 0.009375 bw    2.400 fbw    2.000 MHz nfreq 256 nsam 1048576 npoint 214 integ    76 sigma    0.223 bsw 0
Spectrum 
1083.530 1081.704 1076.809 1074.996 1077.442 1082.725 1079.725 1077.251 1079.375 1081.110 1078.843 1078.854 1084.820 1082.633 1081.482 1079.404 1086.511 1081.256 1079.379 1083.395 1081.319 1081.464 1081.862 1080.287 1082.044 1082.263 1080.714 1084.393 1081.422 1078.204 1079.665 1080.637 1087.713 1079.658 1079.554 1082.228 1077.946 1082.101 1090.936 1079.715 1082.650 1077.798 1083.884 1078.435 1077.584 1079.026 1078.449 1079.470 1076.812 1078.669 1080.037 1078.956 1078.199 1085.379 1079.266 1078.924 1081.377 1084.269 1082.412 1079.956 1081.997 1080.043 1079.073 1083.859 1081.171 1085.787 1101.969 1086.469 1083.426 1087.464 1082.789 1080.067 1080.395 1084.394 1081.866 1080.919 1081.540 1081.743 1089.208 1082.569 1087.521 1086.745 1084.729 1096.036 1080.660 1086.627 1087.814 1082.248 1093.054 1083.966 1081.761 1083.369 1081.608 1088.477 1087.388 1082.316 1086.932 1082.796 1082.150 1084.549 1084.297 1085.769 1086.539 1084.661 1084.729 1084.778 1089.639 1084.881 1083.023 1092.574 1084.539 1084.822 1085.306 1085.258 1086.033 1086.914 1085.307 1086.120 1091.658 1088.827 1084.601 1086.801 1093.753 1091.508 1095.037 1088.070 1087.932 1089.546 1089.840 1092.918 1090.374 1090.162 1090.695 1089.578 1099.565 1092.516 1089.678 1093.936 1090.629 1094.532 1095.249 1092.080 1094.243 1091.641 1091.126 1097.003 1091.607 1092.023 1095.659 1092.777 1097.693 1093.415 1094.140 1090.270 1093.671 1104.005 1092.661 1089.664 1091.415 1093.504 1096.028 1091.319 1091.678 1093.251 1089.850 1099.642 1093.265 1089.255 1091.460 1091.052 1099.086 1091.549 1092.183 1090.561 1090.290 1091.858 1093.358 1091.227 1091.266 1094.043 1090.121 1094.424 1095.146 1098.194 1094.073 1095.896 1099.732 1096.573 1106.666 1096.774 1099.138 1099.256 1095.652 1100.078 1097.203 1093.900 1100.106 1093.025 1097.703 1094.617 1094.592 1099.577 1093.317 1094.133 1104.092 1096.354 1094.260 1096.566 1114.650 1104.373 1099.480 1106.284 1104.051 1103.338 
DATE 2015:209:19:36:40 obsn  34 az 246 el 49 freq_MHz  1421.5000 Tsys 188.600 Tant 926.691 vlsr    9.45 glat 30.172 glon 205.835 source Sun 
Fstart 1420.497 fstop 1422.503 spacing 0.009375 bw    2.400 fbw    2.000 MHz nfreq 256 nsam 1048576 npoint 214 integ    79 sigma    0.220 bsw 0
Spectrum 
1084.090 1082.120 1077.592 1075.252 1077.646 1083.306 1080.183 1077.584 1079.923 1081.422 1079.359 1079.590 1085.383 1083.317 1081.890 1079.832 1087.078 1081.926 1079.682 1083.783 1081.980 1082.349 1082.447 1080.742 1082.758 1082.938 1080.964 1084.463 1081.787 1079.097 1080.193 1081.172 1088.303 1080.260 1080.081 1082.856 1078.604 1082.557 1091.490 1080.062 1082.624 1078.452 1084.257 1078.852 1078.343 1079.687 1079.205 1080.117 1077.991 1078.852 1080.348 1079.725 1079.114 1086.000 1079.899 1079.697 1081.790 1084.989 1082.410 1080.321 1082.333 1080.822 1079.557 1084.333 1081.342 1086.276 1102.406 1086.827 1084.111 1087.862 1083.017 1080.615 1080.753 1084.686 1082.628 1081.520 1082.292 1082.466 1089.723 1082.836 1087.945 1087.457 1085.294 1096.484 1081.236 1087.164 1088.797 1083.040 1093.487 1084.569 1082.358 1083.825 1082.142 1089.279 1088.119 1083.209 1087.636 1083.261 1082.329 1084.973 1084.760 1086.557 1087.049 1085.168 1085.523 1085.524 1090.098 1085.655 1083.614 1093.052 1085.029 1085.380 1086.338 1085.878 1086.695 1087.361 1085.777 1086.934 1092.631 1089.695 1085.044 1087.289 1094.398 1091.986 1095.617 1088.765 1088.437 1090.055 1090.084 1093.378 1090.786 1090.430 1090.968 1090.158 1100.076 1093.040 1090.072 1094.539 1091.734 1095.077 1095.851 1092.756 1094.865 1092.142 1091.530 1097.796 1092.262 1092.422 1096.085 1093.244 1098.279 1093.423 1094.673 1091.133 1094.212 1104.549 1092.990 1089.997 1092.035 1094.115 1096.228 1091.973 1091.717 1093.414 1090.227 1099.726 1093.497 1089.749 1091.952 1091.553 1099.482 1092.122 1092.924 1091.161 1090.861 1092.401 1093.959 1091.652 1091.619 1094.563 1091.110 1094.753 1095.678 1098.501 1094.582 1096.370 1100.330 1097.067 1107.202 1097.351 1099.362 1099.700 1096.253 1100.770 1097.932 1094.603 1100.694 1093.535 1098.002 1095.033 1095.104 1100.424 1093.858 1094.740 1104.668 1097.370 1094.399 1097.339 1115.613 1105.059 1100.277 1106.793 1104.575 1103.743 
DATE 2015:209:19:36:53 obsn  35 az 246 el 49 freq_MHz  1421.5000 Tsys 188.600 Tant 933.375 vlsr    9.45 glat 30.172 glon 205.835 source Sun 
Fstart 1420.497 fstop 1422.503 spacing 0.009375 bw    2.400 fbw    2.000 MHz nfreq 256 nsam 1048576 npoint 214 integ    81 sigma    0.217 bsw 0
Spectrum 
1084.596 1082.637 1078.258 1076.157 1078.475 1084.064 1080.773 1078.266 1080.511 1081.927 1079.884 1080.578 1085.646 1083.710 1082.538 1080.588 1087.356 1082.583 1080.362 1084.615 1082.394 1082.954 1083.294 1081.438 1083.671 1083.671 1081.592 1085.405 1082.693 1079.669 1080.924 1081.772 1088.710 1080.846 1080.684 1083.585 1079.161 1083.470 1092.267 1080.727 1083.370 1079.164 1085.163 1079.667 1078.699 1080.345 1079.855 1081.203 1078.545 1079.292 1080.730 1080.273 1079.765 1086.866 1080.657 1080.691 1082.604 1085.690 1083.061 1081.057 1083.258 1081.320 1080.501 1084.781 1082.091 1086.932 1103.008 1087.572 1084.710 1088.174 1083.562 1081.740 1081.924 1085.530 1083.474 1082.453 1082.930 1083.402 1090.223 1083.514 1089.116 1088.326 1085.716 1096.989 1081.923 1087.823 1089.568 1083.529 1094.098 1085.381 1083.494 1084.689 1082.974 1089.693 1088.575 1084.011 1088.446 1084.132 1082.753 1085.712 1085.389 1087.275 1087.836 1085.718 1086.470 1086.109 1090.391 1086.274 1084.306 1093.407 1085.492 1086.203 1086.941 1086.246 1087.167 1088.288 1086.743 1087.474 1093.080 1090.423 1085.875 1087.973 1095.052 1092.573 1096.338 1089.345 1089.059 1090.989 1090.844 1094.285 1091.248 1091.356 1091.751 1091.110 1101.019 1093.705 1090.615 1095.173 1092.389 1095.446 1096.530 1093.225 1095.424 1092.862 1092.126 1098.240 1092.723 1093.302 1096.871 1093.863 1099.030 1094.275 1095.345 1091.523 1094.834 1105.229 1093.496 1090.613 1092.689 1094.535 1097.094 1092.610 1092.368 1094.194 1091.073 1100.828 1093.986 1090.032 1092.581 1092.179 1100.776 1092.981 1093.978 1092.033 1091.821 1092.925 1094.461 1092.343 1092.660 1095.242 1091.836 1095.603 1096.330 1098.884 1095.394 1097.306 1101.398 1097.409 1107.718 1098.370 1100.140 1100.379 1097.091 1101.277 1098.737 1095.330 1101.423 1094.448 1098.634 1095.977 1095.823 1100.934 1094.625 1095.737 1105.148 1098.180 1095.279 1098.130 1115.895 1105.993 1101.023 1107.327 1105.315 1104.738 
DATE 2015:209:19:37:06 obsn  36 az 246 el 49 freq_MHz  1421.5000 Tsys 188.600 Tant 937.549 vlsr    9.45 glat 30.172 glon 205.835 source Sun 
Fstart 1420.497 fstop 1422.503 spacing 0.009375 bw    2.400 fbw    2.000 MHz nfreq 256 nsam 1048576 npoint 214 integ    83 sigma    0.214 bsw 0
Spectrum 
1085.755 1083.500 1078.889 1076.717 1079.362 1084.726 1081.527 1079.459 1081.428 1082.581 1081.016 1081.588 1086.436 1084.518 1082.868 1081.440 1087.990 1083.287 1081.473 1085.517 1082.911 1083.784 1083.826 1082.184 1084.459 1084.406 1082.243 1085.841 1083.397 1080.724 1082.221 1082.872 1089.768 1081.636 1081.264 1084.275 1080.264 1084.332 1093.084 1081.927 1084.317 1080.097 1086.039 1080.139 1079.911 1081.236 1080.376 1082.071 1079.235 1080.542 1081.731 1081.067 1080.616 1087.677 1081.135 1081.426 1083.170 1086.698 1083.845 1081.835 1083.752 1082.402 1081.409 1085.713 1082.932 1087.659 1103.895 1088.454 1085.236 1089.290 1084.248 1082.782 1082.707 1086.385 1084.301 1083.144 1083.976 1084.087 1091.148 1084.183 1089.870 1089.446 1086.395 1097.519 1082.945 1089.045 1090.443 1084.486 1094.592 1086.106 1083.966 1085.590 1083.806 1090.256 1089.517 1084.788 1089.186 1084.904 1083.864 1086.330 1086.156 1088.326 1088.809 1086.751 1087.468 1086.968 1091.215 1087.205 1085.367 1094.194 1086.536 1087.442 1087.795 1087.053 1087.768 1088.928 1087.786 1088.444 1093.990 1091.499 1086.894 1089.159 1095.788 1093.242 1097.559 1090.580 1089.898 1092.003 1091.825 1095.281 1092.496 1092.124 1092.706 1091.817 1101.954 1094.391 1091.638 1096.323 1092.972 1096.405 1096.952 1094.145 1096.270 1093.665 1093.095 1099.116 1093.715 1094.304 1097.797 1094.971 1100.341 1095.489 1095.800 1092.674 1095.854 1106.114 1094.477 1091.236 1093.506 1095.513 1098.205 1093.631 1093.154 1095.020 1091.972 1101.889 1094.404 1091.045 1093.558 1092.735 1101.819 1093.698 1094.899 1092.898 1092.798 1093.614 1095.319 1093.208 1093.265 1095.835 1092.558 1096.606 1097.561 1099.889 1096.066 1098.100 1102.093 1098.332 1108.537 1099.273 1101.002 1101.023 1097.878 1102.509 1099.297 1096.504 1102.142 1095.341 1099.509 1096.776 1096.756 1101.649 1095.507 1096.403 1106.115 1099.109 1096.200 1098.846 1116.835 1107.337 1101.759 1107.668 1105.706 1105.289 
DATE 2015:209:19:37:19 obsn  37 az 246 el 49 freq_MHz  1421.5000 Tsys 188.600 Tant 942.428 vlsr    9.45 glat 30.173 glon 205.835 source Sun 
Fstart 1420.497 fstop 1422.503 spacing 0.009375 bw    2.400 fbw    2.000 MHz nfreq 256 nsam 1048576 npoint 214 integ    85 sigma    0.211 bsw 0
Spectrum 
1086.098 1084.550 1079.648 1077.603 1080.017 1085.215 1082.120 1080.338 1082.141 1083.382 1081.512 1082.504 1087.020 1085.261 1083.861 1082.262 1088.599 1083.985 1082.413 1086.404 1083.558 1084.756 1084.615 1083.027 1085.343 1085.295 1083.022 1086.722 1084.121 1081.536 1083.463 1083.716 1090.276 1082.342 1082.099 1084.987 1081.354 1085.105 1094.327 1082.355 1085.331 1080.832 1086.548 1080.932 1080.802 1082.099 1081.363 1082.724 1080.039 1081.555 1082.542 1082.169 1081.172 1088.279 1081.881 1082.415 1084.284 1087.720 1084.772 1082.539 1084.418 1083.275 1082.437 1086.676 1083.690 1088.176 1104.513 1088.969 1086.277 1090.120 1085.038 1083.389 1083.749 1087.160 1084.914 1084.023 1084.711 1084.863 1091.689 1084.752 1090.835 1090.438 1087.128 1098.088 1084.121 1089.455 1091.243 1085.530 1095.320 1087.085 1084.975 1086.788 1084.975 1091.349 1090.531 1085.674 1089.865 1085.702 1084.819 1086.975 1086.775 1089.215 1089.615 1087.824 1088.190 1087.574 1092.112 1087.910 1085.952 1094.943 1087.100 1088.271 1088.751 1087.526 1088.506 1089.947 1088.525 1089.567 1094.925 1092.224 1087.560 1089.875 1096.766 1094.017 1098.539 1091.810 1090.459 1092.887 1092.551 1096.058 1093.307 1093.035 1093.479 1092.669 1102.941 1095.074 1092.431 1097.064 1093.971 1097.349 1097.648 1095.251 1097.132 1094.294 1094.362 1099.882 1094.662 1095.516 1098.846 1095.764 1101.290 1096.173 1096.733 1093.932 1096.846 1106.708 1095.326 1091.969 1094.604 1096.349 1099.175 1094.626 1094.032 1095.804 1092.719 1102.737 1095.530 1091.902 1094.613 1093.531 1102.870 1094.507 1095.710 1093.836 1093.755 1094.694 1096.097 1094.209 1094.338 1096.688 1093.202 1097.447 1098.528 1100.342 1097.149 1098.925 1102.592 1099.412 1109.143 1100.354 1101.327 1102.026 1098.772 1103.427 1100.294 1097.326 1103.035 1096.379 1100.515 1097.585 1098.067 1102.705 1096.000 1097.402 1106.944 1099.813 1096.928 1099.437 1117.491 1107.973 1102.215 1108.251 1106.555 1106.181 
DATE 2015:209:19:37:33 obsn  38 az 246 el 49 freq_MHz  1421.5000 Tsys 188.600 Tant 957.230 vlsr    9.45 glat 30.173 glon 205.835 source Sun 
Fstart 1420.497 fstop 1422.503 spacing 0.009375 bw    2.400 fbw    2.000 MHz nfreq 256 nsam 1048576 npoint 214 integ    87 sigma    0.208 bsw 0
Spectrum 
1086.858 1085.570 1080.623 1079.163 1081.350 1086.824 1083.224 1081.201 1083.535 1084.867 1082.824 1083.212 1088.145 1085.966 1084.750 1082.945 1089.695 1085.140 1083.412 1087.326 1084.745 1085.920 1085.853 1083.991 1086.605 1086.302 1084.219 1087.774 1085.542 1082.487 1084.572 1084.432 1091.391 1083.470 1083.236 1085.877 1082.487 1086.166 1095.486 1083.038 1086.122 1082.027 1087.689 1082.429 1081.627 1083.377 1082.723 1083.830 1081.349 1082.482 1083.654 1083.547 1082.374 1089.246 1082.869 1083.663 1085.526 1088.742 1085.825 1084.069 1085.741 1084.306 1083.855 1087.733 1084.819 1089.434 1105.898 1090.022 1087.645 1091.229 1086.069 1084.594 1084.813 1088.096 1086.316 1084.885 1085.708 1086.112 1092.934 1085.778 1092.209 1091.501 1088.256 1099.023 1085.370 1090.617 1092.143 1086.505 1096.369 1087.922 1086.068 1087.907 1086.385 1092.602 1091.582 1086.721 1091.023 1087.165 1086.362 1088.368 1087.807 1090.363 1090.585 1088.747 1089.051 1088.200 1093.211 1089.006 1087.378 1095.868 1088.051 1089.612 1089.997 1088.796 1089.957 1091.189 1089.462 1090.956 1096.121 1093.385 1088.627 1090.926 1097.454 1094.623 1099.414 1092.735 1091.285 1093.849 1093.530 1096.991 1094.355 1093.843 1094.499 1093.665 1103.599 1096.135 1093.644 1097.797 1095.189 1098.353 1099.182 1096.422 1098.234 1095.329 1095.601 1101.042 1095.580 1096.911 1099.745 1096.993 1102.281 1097.303 1097.768 1095.081 1097.789 1108.019 1096.328 1093.240 1095.830 1097.549 1100.361 1095.802 1095.257 1096.856 1093.776 1103.834 1096.614 1092.991 1095.714 1095.107 1103.995 1095.664 1096.747 1094.737 1094.825 1095.772 1097.055 1094.927 1095.864 1097.519 1094.517 1098.550 1099.182 1101.638 1098.321 1100.283 1103.973 1100.365 1110.313 1101.351 1102.397 1103.155 1100.107 1104.896 1101.357 1098.348 1104.092 1097.605 1101.712 1098.639 1099.390 1103.917 1097.058 1098.369 1107.807 1100.762 1098.284 1100.642 1118.605 1108.816 1103.452 1109.463 1107.595 1107.412 
DATE 2015:209:19:37:46 obsn  39 az 246 el 49 freq_MHz  1421.5000 Tsys 188.600 Tant 960.538 vlsr    9.45 glat 30.173 glon 205.835 source Sun 
Fstart 1420.497 fstop 1422.503 spacing 0.009375 bw    2.400 fbw    2.000 MHz nfreq 256 nsam 1048576 npoint 214 integ    90 sigma    0.206 bsw 0
Spectrum 
1088.006 1086.951 1081.545 1080.130 1082.336 1088.009 1084.430 1082.147 1085.001 1086.502 1084.320 1084.288 1089.180 1087.069 1086.001 1083.814 1090.602 1086.183 1084.113 1088.554 1085.434 1087.315 1086.890 1084.916 1087.620 1087.730 1085.443 1088.781 1086.719 1083.641 1085.429 1085.860 1092.614 1084.296 1084.304 1086.660 1083.701 1087.298 1096.966 1084.154 1087.353 1083.198 1088.970 1083.354 1082.975 1084.669 1083.742 1085.192 1082.867 1083.586 1085.117 1085.182 1083.833 1090.689 1084.001 1084.820 1086.419 1089.857 1087.096 1085.061 1086.858 1085.450 1085.104 1088.976 1086.006 1090.589 1107.216 1091.453 1088.713 1092.437 1087.118 1085.871 1086.050 1089.510 1087.716 1086.043 1087.187 1087.306 1093.986 1086.965 1093.543 1092.735 1089.258 1100.199 1086.628 1091.543 1093.159 1087.697 1097.202 1089.132 1087.578 1089.381 1087.481 1093.781 1092.854 1088.146 1092.203 1087.849 1087.592 1089.562 1089.086 1091.466 1092.219 1089.825 1090.206 1089.286 1094.442 1090.180 1088.985 1096.925 1089.454 1090.863 1091.185 1090.067 1091.066 1092.067 1090.665 1092.013 1097.056 1094.396 1089.947 1092.030 1098.709 1096.008 1100.910 1093.994 1092.453 1095.148 1094.589 1098.114 1095.532 1095.266 1095.861 1095.251 1105.044 1097.466 1095.023 1099.177 1096.512 1099.867 1100.129 1097.531 1099.193 1096.458 1097.635 1102.391 1096.679 1098.517 1101.262 1098.082 1103.445 1098.271 1098.776 1096.385 1098.932 1109.387 1097.295 1094.596 1097.292 1098.705 1101.536 1097.027 1096.393 1098.054 1094.647 1105.034 1097.996 1094.346 1097.448 1096.257 1105.472 1097.301 1097.947 1095.903 1095.912 1096.803 1098.284 1096.603 1097.286 1098.809 1095.650 1099.813 1100.123 1102.894 1099.566 1101.428 1104.754 1101.245 1111.621 1102.811 1103.806 1104.312 1101.428 1106.431 1102.277 1100.104 1105.701 1098.547 1102.751 1100.025 1100.577 1104.954 1098.131 1099.279 1109.001 1101.648 1099.702 1101.841 1119.865 1110.293 1104.723 1110.974 1109.067 1108.517 
DATE 2015:209:19:37:59 obsn  40 az 246 el 49 freq_MHz  1421.5000 Tsys 188.600 Tant 966.565 vlsr    9.45 glat 30.173 glon 205.835 source Sun 
Fstart 1420.497 fstop 1422.503 spacing 0.009375 bw    2.400 fbw    2.000 MHz nfreq 256 nsam 1048576 npoint 214 integ    92 sigma    0.203 bsw 0
Spectrum 
1089.104 1088.544 1082.883 1081.624 1083.887 1089.217 1085.603 1083.757 1086.350 1087.631 1085.232 1085.375 1090.614 1088.535 1087.412 1085.060 1092.040 1087.539 1085.431 1089.762 1086.225 1088.790 1088.273 1086.347 1088.841 1088.967 1086.557 1089.771 1087.813 1085.047 1086.807 1087.169 1093.916 1085.699 1085.139 1087.936 1085.140 1088.551 1098.438 1085.640 1088.770 1084.733 1090.194 1084.920 1084.217 1085.979 1085.363 1086.307 1084.386 1084.867 1086.204 1086.733 1084.945 1092.095 1085.450 1086.093 1087.830 1091.252 1088.548 1086.349 1088.176 1086.845 1086.219 1090.340 1087.467 1091.946 1108.536 1092.848 1090.101 1093.673 1088.550 1087.438 1087.372 1090.904 1089.183 1087.426 1088.494 1088.207 1095.314 1087.558 1094.746 1093.977 1090.350 1101.133 1088.021 1092.768 1094.593 1089.064 1098.361 1090.151 1088.817 1090.589 1088.733 1095.119 1094.393 1089.306 1093.243 1089.412 1088.855 1090.757 1090.178 1092.717 1093.655 1091.205 1091.004 1090.689 1095.781 1091.499 1090.592 1098.314 1090.898 1092.266 1092.551 1091.604 1092.531 1093.609 1091.970 1093.184 1098.732 1095.780 1091.194 1093.670 1099.921 1097.242 1102.330 1095.321 1093.952 1096.583 1096.349 1099.397 1096.920 1096.941 1097.237 1096.357 1106.265 1098.833 1096.188 1100.376 1097.985 1101.344 1101.698 1098.807 1100.487 1098.122 1098.959 1103.885 1098.032 1099.630 1102.853 1099.650 1104.737 1099.912 1099.992 1097.544 1100.453 1110.904 1098.736 1096.009 1098.776 1100.268 1103.152 1098.653 1098.248 1099.169 1095.735 1106.373 1099.397 1095.831 1098.792 1097.342 1106.713 1099.017 1099.132 1096.841 1097.207 1098.218 1099.548 1097.855 1098.555 1100.285 1097.467 1101.069 1101.425 1104.313 1100.984 1102.659 1106.213 1102.665 1113.204 1104.548 1105.529 1105.771 1102.710 1107.766 1103.345 1101.485 1106.812 1099.678 1103.912 1101.602 1101.642 1106.123 1099.575 1100.470 1110.670 1103.094 1101.085 1103.263 1121.089 1111.561 1106.073 1112.371 1110.722 1110.125 
DATE 2015:209:19:38:12 obsn  41 az 246 el 49 freq_MHz  1421.5000 Tsys 188.600 Tant 975.691 vlsr    9.45 glat 30.173 glon 205.835 source Sun 
Fstart 1420.497 fstop 1422.503 spacing 0.009375 bw    2.400 fbw    2.000 MHz nfreq 256 nsam 1048576 npoint 214 integ    94 sigma    0.201 bsw 0
Spectrum 
1090.338 1089.969 1084.380 1083.072 1085.540 1090.241 1087.094 1084.852 1087.702 1089.222 1086.761 1087.083 1091.812 1090.432 1088.965 1086.664 1093.308 1088.651 1087.088 1091.195 1087.630 1090.259 1089.742 1088.034 1090.465 1090.276 1087.664 1091.179 1089.350 1086.240 1088.087 1088.687 1095.366 1087.306 1086.819 1089.280 1086.665 1089.998 1100.142 1087.393 1090.608 1086.275 1091.304 1086.426 1085.618 1087.525 1086.884 1087.585 1085.922 1086.198 1088.081 1088.393 1086.321 1093.463 1086.792 1087.643 1089.152 1092.872 1089.963 1087.838 1089.810 1087.865 1087.833 1091.468 1088.835 1093.523 1109.943 1094.261 1091.568 1095.329 1090.040 1088.664 1088.780 1092.561 1090.112 1088.662 1090.253 1089.379 1096.779 1089.128 1096.194 1095.299 1092.028 1102.520 1089.469 1094.343 1096.244 1090.555 1099.931 1091.364 1090.376 1092.330 1090.008 1096.583 1095.817 1090.756 1094.727 1090.882 1090.424 1092.021 1091.571 1094.180 1094.952 1092.739 1092.464 1092.135 1097.372 1092.696 1091.948 1099.393 1092.531 1094.015 1094.121 1092.902 1093.794 1095.090 1093.263 1094.307 1100.250 1097.555 1092.805 1095.280 1101.367 1098.500 1104.031 1096.561 1095.449 1097.830 1097.986 1100.990 1098.417 1098.319 1099.193 1097.728 1107.834 1100.160 1097.931 1101.575 1099.405 1102.915 1103.395 1100.580 1101.873 1099.611 1099.891 1105.327 1099.572 1101.014 1104.420 1101.161 1105.988 1101.371 1101.379 1099.403 1101.881 1112.359 1099.957 1097.588 1100.386 1101.440 1104.629 1100.163 1099.604 1101.098 1097.156 1107.668 1100.782 1097.261 1100.288 1099.164 1108.255 1100.196 1100.689 1098.423 1098.583 1099.764 1101.305 1099.386 1100.041 1101.660 1099.048 1102.776 1102.564 1105.886 1102.721 1104.202 1107.804 1104.592 1114.486 1105.923 1106.808 1107.286 1104.169 1109.220 1105.098 1103.050 1108.381 1101.304 1105.664 1103.014 1103.095 1107.531 1101.267 1102.054 1112.041 1104.229 1102.502 1104.520 1122.509 1113.024 1107.760 1113.788 1112.354 1111.624 
DATE 2015:209:19:38:25 obsn  42 az 246 el 49 freq_MHz  1421.5000 Tsys 188.600 Tant 973.211 vlsr    9.45 glat 30.173 glon 205.835 source Sun 
Fstart 1420.497 fstop 1422.503 spacing 0.009375 bw    2.400 fbw    2.000 MHz nfreq 256 nsam 1048576 npoint 214 integ    96 sigma    0.199 bsw 0
Spectrum 
1091.737 1091.163 1085.731 1084.373 1086.786 1091.799 1088.302 1086.418 1089.162 1090.892 1088.210 1088.546 1093.106 1092.043 1090.533 1088.061 1094.723 1090.057 1088.557 1092.723 1089.175 1091.922 1091.370 1089.407 1092.033 1091.752 1088.899 1092.400 1091.052 1087.846 1089.706 1090.076 1096.430 1088.805 1088.425 1090.630 1088.073 1091.544 1101.731 1088.751 1091.852 1087.818 1092.795 1087.858 1087.051 1089.254 1088.250 1088.594 1087.426 1087.529 1089.598 1089.723 1087.891 1094.735 1088.341 1088.887 1090.491 1094.284 1091.368 1089.232 1091.214 1089.123 1089.230 1093.370 1090.491 1094.987 1111.401 1095.959 1092.852 1096.897 1091.376 1089.998 1090.253 1093.982 1091.445 1090.241 1091.454 1090.995 1098.213 1090.724 1097.772 1096.705 1093.541 1104.170 1091.169 1096.132 1097.600 1091.621 1101.457 1092.778 1091.999 1093.932 1091.464 1098.029 1097.241 1092.020 1096.131 1092.118 1092.068 1093.264 1093.130 1095.869 1096.333 1094.197 1094.006 1093.675 1098.814 1094.263 1093.240 1100.763 1093.916 1095.531 1095.597 1094.212 1095.500 1096.665 1094.803 1095.524 1101.482 1098.692 1094.506 1097.415 1103.043 1099.994 1105.719 1097.851 1096.721 1099.327 1099.408 1102.408 1099.766 1099.904 1100.791 1099.188 1109.265 1101.461 1099.505 1103.103 1100.809 1104.213 1104.759 1101.680 1103.200 1100.960 1101.761 1106.946 1101.218 1102.315 1105.795 1102.635 1107.705 1102.743 1102.943 1101.219 1103.406 1113.773 1101.254 1099.167 1101.930 1102.904 1106.014 1101.609 1101.037 1102.495 1098.748 1109.329 1102.446 1098.433 1101.637 1100.618 1109.562 1101.767 1102.119 1100.008 1100.145 1100.954 1102.723 1100.645 1101.302 1103.355 1100.308 1104.163 1104.103 1107.532 1103.735 1105.402 1109.022 1105.950 1115.968 1107.196 1108.307 1108.613 1105.634 1110.550 1106.580 1104.972 1109.918 1103.166 1107.131 1104.626 1104.626 1108.863 1102.799 1103.548 1113.553 1105.660 1103.937 1105.913 1123.866 1114.656 1109.417 1115.433 1113.612 1112.985 
DATE 2015:209:19:38:41 obsn  43 az 247 el 48 freq_MHz  1421.5000 Tsys 188.600 Tant 779.909 vlsr    9.45 glat 30.173 glon 205.836 source Sun 
Fstart 1420.497 fstop 1422.503 spacing 0.009375 bw    2.400 fbw    2.000 MHz nfreq 256 nsam 1048576 npoint 214 integ    98 sigma    0.196 bsw 0
Spectrum 
1092.369 1091.728 1086.226 1085.114 1087.329 1092.126 1088.909 1087.098 1089.841 1091.499 1088.751 1089.236 1093.745 1092.448 1091.225 1088.678 1095.055 1090.561 1089.167 1093.743 1090.088 1092.364 1091.852 1089.845 1092.691 1092.361 1089.571 1093.042 1091.306 1088.705 1090.458 1090.584 1096.970 1089.470 1089.365 1091.371 1088.474 1092.303 1102.437 1089.250 1092.762 1088.575 1093.506 1088.790 1087.620 1089.969 1088.810 1089.257 1088.134 1087.880 1089.726 1090.122 1088.836 1095.421 1088.813 1089.562 1091.180 1094.797 1092.242 1090.108 1091.772 1089.881 1089.919 1094.127 1091.077 1095.653 1112.004 1096.722 1093.633 1097.478 1092.625 1091.100 1090.620 1094.520 1091.952 1090.841 1092.175 1091.594 1098.875 1091.469 1098.288 1097.491 1094.089 1104.667 1091.693 1096.712 1098.020 1092.334 1102.034 1093.356 1092.643 1094.714 1091.957 1098.528 1097.925 1092.825 1097.006 1092.810 1092.760 1094.004 1093.782 1096.533 1097.318 1094.981 1094.772 1094.439 1099.436 1094.819 1093.857 1101.389 1094.863 1096.066 1096.257 1095.006 1096.423 1097.166 1095.616 1096.422 1102.187 1099.483 1095.138 1097.992 1103.649 1100.418 1106.404 1098.708 1097.381 1099.903 1099.902 1103.047 1100.584 1100.425 1101.396 1099.573 1109.792 1102.245 1100.188 1103.447 1101.403 1104.856 1105.539 1102.605 1103.814 1101.549 1102.161 1107.107 1102.053 1103.108 1106.423 1103.409 1108.251 1103.448 1103.673 1101.807 1103.744 1114.216 1101.944 1099.800 1102.534 1103.558 1106.529 1102.214 1101.326 1102.967 1099.725 1110.208 1103.284 1099.223 1102.503 1100.897 1109.870 1102.327 1102.726 1100.835 1100.418 1101.455 1103.222 1101.255 1101.752 1103.855 1100.980 1105.013 1104.700 1108.261 1104.374 1105.842 1109.833 1106.429 1116.792 1107.848 1109.073 1109.377 1106.239 1111.459 1107.206 1105.479 1110.580 1103.799 1107.525 1105.284 1105.489 1109.595 1103.812 1104.391 1114.101 1106.233 1104.355 1106.367 1124.306 1115.408 1110.459 1116.102 1114.240 1113.379 
DATE 2015:209:19:38:54 obsn  44 az 247 el 48 freq_MHz  1421.5000 Tsys 188.600 Tant 793.568 vlsr    9.45 glat 30.173 glon 205.836 source Sun 
Fstart 1420.497 fstop 1422.503 spacing 0.009375 bw    2.400 fbw    2.000 MHz nfreq 256 nsam 1048576 npoint 214 integ   100 sigma    0.194 bsw 0
Spectrum 
1089.485 1089.112 1083.784 1082.433 1084.604 1089.449 1086.203 1084.482 1087.056 1088.895 1086.066 1086.718 1091.067 1089.857 1088.547 1085.819 1092.254 1087.979 1086.778 1090.958 1087.385 1089.791 1089.275 1087.300 1090.177 1089.667 1086.790 1090.618 1088.513 1086.105 1087.715 1087.980 1094.544 1086.772 1086.821 1088.590 1085.751 1089.439 1099.954 1086.669 1089.917 1085.957 1091.032 1086.278 1084.738 1087.233 1085.780 1086.516 1085.501 1085.335 1086.920 1087.255 1086.059 1092.668 1086.017 1087.145 1088.468 1092.113 1089.485 1087.552 1089.284 1087.184 1087.399 1091.372 1088.522 1092.970 1109.282 1094.040 1090.929 1094.786 1089.784 1088.239 1087.791 1091.749 1089.260 1088.096 1089.591 1089.062 1096.391 1088.764 1095.722 1094.743 1091.236 1101.963 1089.261 1094.221 1095.427 1089.558 1099.357 1090.810 1089.933 1091.984 1089.311 1095.826 1095.304 1090.250 1094.441 1090.411 1090.075 1091.294 1090.929 1093.876 1094.562 1092.004 1092.231 1091.779 1096.779 1092.114 1090.998 1098.894 1092.001 1093.133 1093.794 1092.164 1093.812 1094.300 1092.982 1093.764 1099.394 1096.829 1092.548 1095.297 1100.788 1097.611 1103.421 1096.076 1094.671 1097.286 1097.307 1100.573 1097.771 1097.699 1098.760 1097.033 1106.975 1099.561 1097.571 1100.799 1099.003 1102.111 1102.847 1099.655 1101.354 1098.595 1099.511 1104.620 1099.248 1100.269 1103.613 1100.593 1105.577 1100.749 1100.903 1098.886 1100.927 1111.427 1099.288 1097.029 1099.711 1100.925 1103.745 1099.153 1098.442 1100.422 1097.024 1107.411 1100.454 1096.589 1099.761 1098.119 1107.047 1099.628 1100.067 1098.042 1097.404 1098.637 1100.461 1098.424 1098.884 1101.322 1098.248 1102.317 1102.167 1105.385 1101.436 1103.031 1106.946 1103.587 1114.302 1105.156 1106.225 1106.521 1103.429 1108.526 1104.275 1102.863 1107.821 1101.349 1104.878 1102.418 1102.750 1106.771 1101.046 1101.452 1111.629 1103.545 1101.574 1103.532 1121.579 1112.608 1107.482 1113.317 1111.344 1110.471 
DATE 2015:209:19:39:07 obsn  45 az 247 el 48 freq_MHz  1421.5000 Tsys 188.600 Tant 811.567 vlsr    9.45 glat 30.174 glon 205.836 source Sun 
Fstart 1420.497 fstop 1422.503 spacing 0.009375 bw    2.400 fbw    2.000 MHz nfreq 256 nsam 1048576 npoint 214 integ   103 sigma    0.192 bsw 0
Spectrum 
1087.486 1086.586 1081.434 1080.114 1082.597 1087.258 1083.872 1082.289 1084.912 1086.569 1083.646 1084.667 1088.655 1087.588 1086.271 1083.685 1089.779 1085.566 1084.245 1088.756 1085.271 1087.551 1086.832 1084.943 1087.870 1087.652 1084.493 1088.244 1086.270 1083.794 1085.308 1085.617 1092.411 1084.401 1084.505 1086.067 1083.395 1087.177 1097.627 1084.478 1087.605 1083.631 1088.545 1083.966 1082.503 1084.993 1083.420 1084.418 1083.521 1082.965 1084.729 1084.847 1083.727 1090.030 1083.829 1085.104 1086.363 1089.855 1087.214 1085.270 1086.979 1084.981 1085.312 1088.954 1086.321 1090.648 1107.005 1091.731 1088.344 1092.646 1087.754 1086.011 1085.429 1089.422 1087.039 1085.950 1087.517 1086.735 1094.092 1086.618 1093.293 1092.132 1088.995 1099.930 1087.259 1092.052 1093.442 1087.299 1097.262 1088.583 1087.698 1089.630 1087.226 1093.604 1093.071 1088.027 1092.027 1088.212 1087.895 1089.076 1088.710 1091.741 1092.422 1089.568 1090.033 1089.694 1094.527 1089.855 1088.683 1096.705 1089.689 1091.072 1091.339 1090.009 1091.598 1092.141 1090.638 1091.569 1097.109 1094.479 1090.091 1092.906 1098.637 1095.342 1101.077 1093.713 1092.430 1094.842 1094.895 1098.040 1095.522 1095.427 1096.412 1094.966 1105.081 1097.494 1095.122 1098.275 1096.646 1100.018 1100.549 1097.249 1099.314 1096.341 1097.052 1102.216 1096.748 1098.003 1101.289 1098.384 1103.545 1098.452 1098.271 1096.860 1098.929 1109.283 1096.973 1094.896 1097.311 1098.727 1101.698 1096.664 1096.109 1098.135 1094.654 1105.099 1098.228 1094.132 1097.635 1095.833 1104.799 1097.505 1097.649 1095.656 1095.351 1096.456 1098.056 1096.390 1096.579 1098.819 1095.922 1100.188 1099.689 1102.854 1098.921 1101.051 1104.849 1101.356 1111.995 1102.837 1103.629 1104.299 1101.052 1106.130 1102.017 1100.693 1105.512 1099.127 1102.564 1100.024 1100.500 1104.559 1098.641 1099.116 1109.292 1101.215 1099.395 1101.606 1119.267 1110.098 1105.084 1110.808 1109.079 1108.126 
DATE 2015:209:19:39:21 obsn  46 az 247 el 48 freq_MHz  1421.5000 Tsys 188.600 Tant 820.707 vlsr    9.45 glat 30.174 glon 205.836 source Sun 
Fstart 1420.497 fstop 1422.503 spacing 0.009375 bw    2.400 fbw    2.000 MHz nfreq 256 nsam 1048576 npoint 214 integ   105 sigma    0.190 bsw 0
Spectrum 
1085.592 1084.502 1079.694 1078.362 1080.848 1085.432 1081.936 1080.430 1082.907 1084.326 1081.757 1083.030 1086.854 1085.314 1084.294 1081.679 1087.831 1083.598 1082.200 1086.796 1083.196 1085.608 1084.730 1083.179 1085.821 1085.540 1082.688 1086.359 1084.258 1081.828 1083.532 1083.646 1090.506 1082.722 1082.493 1084.095 1081.556 1085.402 1095.794 1082.505 1085.939 1081.634 1086.641 1082.072 1080.558 1083.179 1081.401 1082.287 1081.347 1081.143 1082.607 1082.935 1081.678 1088.171 1081.781 1083.075 1084.584 1088.169 1085.318 1083.337 1084.986 1082.940 1083.211 1087.034 1084.606 1088.739 1104.979 1089.885 1086.552 1090.913 1085.541 1084.234 1083.533 1087.818 1085.032 1083.962 1085.543 1084.781 1092.185 1084.988 1091.272 1090.016 1086.833 1098.007 1085.349 1090.123 1091.486 1085.350 1095.289 1087.010 1085.937 1087.783 1085.375 1091.642 1091.423 1086.040 1089.956 1086.444 1086.004 1087.177 1086.855 1089.660 1090.530 1087.390 1088.025 1087.578 1092.283 1087.886 1086.566 1094.543 1087.630 1089.022 1089.507 1087.973 1089.521 1090.107 1088.538 1089.614 1095.369 1092.580 1088.101 1090.602 1096.712 1093.193 1099.050 1092.077 1090.520 1092.766 1092.760 1096.243 1093.446 1093.426 1094.393 1092.709 1103.049 1095.778 1093.253 1096.220 1094.867 1098.151 1098.460 1094.992 1097.146 1094.404 1095.107 1100.201 1094.659 1096.072 1099.319 1096.526 1101.374 1096.590 1096.249 1094.850 1096.877 1107.245 1095.006 1093.106 1095.500 1096.485 1099.576 1094.671 1094.298 1096.090 1093.002 1103.023 1096.373 1092.344 1095.560 1093.964 1102.835 1095.651 1095.664 1093.621 1093.220 1094.570 1096.084 1094.329 1094.592 1096.692 1093.994 1098.167 1097.834 1100.967 1097.150 1098.913 1103.012 1099.373 1109.872 1101.036 1101.665 1102.436 1099.281 1104.345 1100.277 1098.726 1103.359 1097.425 1100.407 1098.287 1098.542 1102.450 1096.648 1097.029 1107.413 1099.350 1097.294 1099.775 1117.198 1107.982 1103.213 1108.930 1107.179 1106.375 
DATE 2015:209:19:39:34 obsn  47 az 247 el 48 freq_MHz  1421.5000 Tsys 188.600 Tant 826.471 vlsr    9.45 glat 30.174 glon 205.836 source Sun 
Fstart 1420.497 fstop 1422.503 spacing 0.009375 bw    2.400 fbw    2.000 MHz nfreq 256 nsam 1048576 npoint 214 integ   107 sigma    0.188 bsw 0
Spectrum 
1083.776 1082.775 1077.973 1076.768 1079.278 1083.832 1080.505 1078.542 1080.877 1082.669 1080.039 1081.425 1085.098 1083.884 1082.713 1080.058 1086.114 1082.180 1080.515 1085.303 1081.666 1083.848 1082.809 1081.308 1084.157 1083.751 1081.044 1084.590 1082.648 1080.142 1081.804 1081.956 1088.804 1081.043 1080.969 1082.410 1079.918 1083.626 1093.893 1080.572 1084.546 1079.983 1084.825 1080.470 1078.938 1081.552 1079.842 1080.760 1080.078 1079.531 1080.824 1081.271 1080.146 1086.371 1080.144 1081.334 1082.872 1086.667 1083.584 1081.803 1083.276 1081.496 1081.536 1085.261 1082.980 1087.221 1103.319 1088.250 1084.820 1089.223 1083.699 1082.746 1082.216 1086.080 1083.193 1082.403 1083.841 1082.902 1090.590 1083.368 1089.492 1088.183 1085.066 1096.260 1083.451 1088.537 1089.611 1083.502 1093.373 1085.203 1084.371 1086.228 1083.829 1090.072 1089.711 1084.490 1088.209 1085.082 1084.474 1085.333 1085.560 1087.945 1088.763 1085.687 1086.357 1086.206 1090.742 1086.270 1084.842 1092.930 1085.896 1087.088 1087.941 1086.327 1087.911 1088.327 1086.859 1088.067 1093.694 1090.831 1086.624 1088.801 1094.764 1091.410 1097.242 1090.605 1088.659 1091.152 1091.110 1094.612 1091.768 1091.775 1092.759 1090.937 1101.237 1094.261 1091.444 1094.542 1093.505 1096.363 1096.695 1093.297 1095.455 1092.917 1093.549 1098.640 1093.142 1094.611 1097.800 1094.903 1099.724 1094.823 1094.427 1093.366 1095.281 1105.444 1093.415 1091.377 1093.723 1094.799 1097.975 1093.171 1092.527 1094.396 1091.148 1101.310 1094.848 1090.628 1094.025 1092.240 1101.137 1093.808 1094.026 1092.155 1091.477 1092.717 1094.575 1092.440 1092.702 1094.908 1092.488 1096.120 1096.085 1098.880 1095.400 1097.255 1101.164 1097.547 1108.064 1099.288 1099.743 1100.490 1097.414 1102.391 1098.544 1097.209 1101.686 1095.497 1098.575 1096.642 1096.880 1100.636 1094.901 1095.096 1105.892 1097.652 1095.756 1098.050 1115.397 1106.151 1101.644 1107.084 1105.455 1104.785 
DATE 2015:209:19:39:47 obsn  48 az 247 el 48 freq_MHz  1421.5000 Tsys 188.600 Tant 838.798 vlsr    9.45 glat 30.174 glon 205.836 source Sun 
Fstart 1420.497 fstop 1422.503 spacing 0.009375 bw    2.400 fbw    2.000 MHz nfreq 256 nsam 1048576 npoint 214 integ   109 sigma    0.186 bsw 0
Spectrum 
1082.371 1081.305 1076.749 1075.440 1078.025 1082.470 1079.179 1077.340 1079.756 1081.441 1078.740 1080.139 1083.809 1082.355 1081.235 1078.900 1084.562 1080.577 1078.919 1083.766 1080.051 1082.530 1081.371 1079.951 1082.727 1082.065 1079.590 1083.066 1081.364 1078.756 1080.310 1080.460 1087.594 1079.763 1079.756 1080.828 1078.401 1082.300 1092.464 1079.112 1083.243 1078.456 1083.525 1079.051 1077.407 1080.321 1078.544 1079.329 1078.638 1078.242 1079.479 1079.905 1079.034 1084.715 1078.896 1079.890 1081.514 1085.200 1082.028 1080.462 1082.036 1079.904 1079.919 1083.875 1081.751 1085.795 1101.931 1086.566 1083.250 1087.697 1082.271 1081.543 1080.915 1084.675 1081.503 1080.894 1082.302 1081.610 1089.208 1081.903 1088.115 1086.607 1083.904 1095.032 1081.868 1086.970 1088.275 1081.973 1092.134 1083.724 1083.126 1084.775 1082.343 1088.738 1088.356 1083.139 1086.808 1083.597 1083.045 1083.945 1084.131 1086.578 1087.076 1084.058 1084.744 1084.882 1089.368 1084.714 1083.713 1091.642 1084.412 1085.731 1086.626 1084.916 1086.724 1086.884 1085.606 1086.547 1092.183 1089.540 1085.326 1087.540 1093.176 1089.844 1095.918 1089.145 1087.176 1089.639 1089.594 1093.307 1090.573 1090.154 1091.295 1089.397 1099.623 1092.937 1089.804 1093.126 1092.039 1095.115 1095.331 1091.857 1094.000 1091.360 1092.284 1097.297 1091.342 1093.240 1096.154 1093.548 1098.318 1093.407 1092.996 1091.839 1093.661 1103.756 1091.628 1089.884 1092.435 1093.327 1096.437 1091.602 1090.954 1093.113 1089.582 1100.054 1093.113 1089.094 1092.567 1090.743 1099.753 1092.352 1092.749 1090.928 1090.037 1091.318 1093.011 1091.160 1091.173 1093.483 1091.085 1094.750 1094.522 1097.166 1094.017 1095.806 1099.920 1095.653 1106.614 1097.970 1098.239 1099.036 1095.975 1101.043 1097.105 1096.147 1100.228 1094.195 1097.270 1095.397 1095.495 1099.102 1093.445 1093.629 1104.467 1096.122 1094.193 1096.727 1114.063 1104.814 1100.054 1105.485 1104.229 1103.386 
DATE 2015:209:19:40:01 obsn  49 az 247 el 48 freq_MHz  1421.5000 Tsys 188.600 Tant 838.080 vlsr    9.45 glat 30.174 glon 205.836 source Sun 
Fstart 1420.497 fstop 1422.503 spacing 0.009375 bw    2.400 fbw    2.000 MHz nfreq 256 nsam 1048576 npoint 214 integ   111 sigma    0.185 bsw 0
Spectrum 
1081.101 1080.177 1075.651 1074.253 1076.929 1081.305 1078.041 1076.229 1078.736 1080.493 1077.366 1078.760 1082.614 1081.092 1080.203 1077.812 1083.480 1079.440 1077.696 1082.680 1078.841 1081.500 1080.037 1078.938 1081.569 1080.910 1078.511 1081.819 1080.022 1077.433 1079.046 1079.086 1086.309 1078.652 1078.611 1079.565 1077.392 1081.168 1091.023 1077.830 1082.182 1077.111 1082.374 1077.820 1076.276 1079.231 1077.512 1078.351 1077.602 1077.362 1078.469 1078.819 1077.924 1083.533 1077.833 1078.800 1080.454 1084.123 1081.038 1079.349 1080.853 1078.551 1078.606 1082.753 1080.744 1084.651 1100.684 1085.582 1082.194 1086.582 1080.916 1080.524 1079.696 1083.559 1080.453 1079.900 1080.986 1080.409 1087.778 1080.589 1086.965 1085.312 1082.744 1093.905 1080.994 1085.820 1087.088 1080.793 1090.950 1082.604 1082.162 1083.678 1081.274 1087.751 1086.954 1081.753 1085.609 1082.335 1081.870 1082.640 1083.021 1085.304 1086.048 1083.203 1083.385 1083.703 1088.200 1083.509 1082.606 1090.328 1083.347 1084.449 1085.545 1083.740 1085.692 1085.726 1084.562 1085.304 1091.088 1088.703 1084.120 1086.433 1091.988 1088.651 1094.640 1088.077 1086.264 1088.484 1088.477 1092.322 1089.464 1088.974 1090.187 1088.037 1098.558 1091.925 1088.664 1092.086 1090.854 1093.932 1094.208 1090.766 1092.613 1090.065 1090.988 1096.034 1090.405 1092.194 1094.831 1092.316 1097.062 1092.244 1092.112 1090.627 1092.683 1102.816 1090.664 1088.579 1091.195 1091.939 1095.386 1090.571 1089.598 1091.880 1088.376 1098.915 1091.752 1087.784 1091.357 1089.381 1098.484 1090.755 1091.641 1089.858 1088.980 1089.996 1091.747 1090.208 1089.997 1092.016 1089.915 1093.634 1093.311 1096.050 1092.743 1094.725 1098.454 1094.498 1105.214 1096.920 1097.080 1097.788 1094.864 1100.050 1096.085 1094.839 1099.096 1092.915 1095.775 1094.147 1094.208 1097.876 1092.267 1092.418 1103.257 1094.933 1093.242 1095.383 1112.780 1103.457 1098.709 1104.144 1102.682 1102.121 
DATE 2015:209:19:40:14 obsn  50 az 247 el 48 freq_MHz  1421.5000 Tsys 188.600 Tant 861.234 vlsr    9.45 glat 30.174 glon 205.836 source Sun 
Fstart 1420.497 fstop 1422.503 spacing 0.009375 bw    2.400 fbw    2.000 MHz nfreq 256 nsam 1048576 npoint 214 integ   114 sigma    0.183 bsw 0
Spectrum 
1080.062 1079.082 1074.752 1073.232 1076.005 1080.490 1077.361 1075.201 1077.571 1079.585 1076.548 1077.890 1081.593 1079.997 1079.423 1076.927 1082.433 1078.520 1076.896 1081.709 1077.771 1080.547 1079.189 1078.172 1080.656 1079.937 1077.450 1080.978 1078.972 1076.535 1078.213 1078.253 1085.242 1077.758 1077.970 1078.575 1076.427 1080.090 1090.050 1077.042 1081.290 1076.399 1081.614 1076.731 1075.606 1078.276 1076.365 1077.598 1076.682 1076.532 1077.594 1077.767 1076.858 1082.535 1076.939 1077.859 1079.272 1083.066 1080.103 1078.499 1079.884 1077.436 1077.771 1081.762 1080.171 1083.836 1099.672 1084.644 1081.386 1085.582 1079.957 1079.541 1078.720 1082.778 1079.466 1078.907 1080.020 1079.455 1086.546 1079.756 1085.834 1084.244 1081.557 1092.951 1079.964 1085.143 1086.139 1079.827 1090.203 1081.907 1081.339 1082.527 1080.447 1086.970 1086.025 1080.936 1084.815 1081.391 1080.953 1081.650 1081.994 1084.247 1085.276 1082.074 1082.555 1082.796 1087.671 1082.288 1081.574 1089.254 1082.271 1083.542 1084.846 1082.846 1084.779 1084.786 1083.692 1084.364 1090.018 1087.774 1083.054 1085.499 1091.102 1087.854 1093.559 1086.897 1085.260 1087.274 1087.386 1091.208 1088.508 1088.087 1089.389 1087.298 1097.398 1090.803 1087.453 1090.897 1089.900 1092.826 1093.145 1089.609 1091.766 1089.221 1090.299 1095.292 1089.557 1091.320 1093.922 1091.440 1096.337 1091.270 1091.238 1089.595 1091.793 1101.801 1089.742 1087.459 1090.256 1090.864 1094.546 1089.654 1088.627 1091.006 1087.271 1097.919 1090.745 1086.817 1090.379 1088.342 1097.704 1089.813 1090.807 1089.012 1088.074 1089.115 1090.717 1089.323 1088.938 1091.161 1089.219 1092.537 1092.326 1095.164 1091.871 1093.888 1097.206 1093.384 1104.223 1096.121 1096.046 1096.980 1093.974 1099.245 1095.070 1093.911 1098.077 1092.152 1094.830 1093.502 1093.252 1096.835 1091.581 1091.322 1102.252 1093.602 1092.345 1094.280 1111.974 1102.682 1097.832 1103.107 1101.410 1101.155 
DATE 2015:209:19:40:27 obsn  51 az 247 el 48 freq_MHz  1421.5000 Tsys 188.600 Tant 866.609 vlsr    9.45 glat 30.174 glon 205.836 source Sun 
Fstart 1420.497 fstop 1422.503 spacing 0.009375 bw    2.400 fbw    2.000 MHz nfreq 256 nsam 1048576 npoint 214 integ   116 sigma    0.181 bsw 0
Spectrum 
1079.497 1078.395 1074.157 1072.496 1075.403 1079.859 1076.836 1074.712 1077.042 1078.825 1075.846 1077.325 1080.806 1079.248 1078.913 1076.375 1081.802 1077.880 1076.275 1080.935 1076.997 1080.044 1078.655 1077.749 1079.976 1079.250 1076.902 1080.184 1078.388 1076.161 1077.523 1077.673 1084.514 1077.150 1077.273 1078.028 1075.686 1079.353 1089.347 1076.404 1080.739 1075.613 1080.990 1075.822 1074.954 1077.717 1075.731 1076.948 1075.930 1075.944 1076.848 1077.221 1076.268 1081.945 1076.322 1077.220 1078.464 1082.379 1079.473 1077.889 1079.120 1076.733 1077.131 1081.263 1079.513 1083.141 1099.075 1084.299 1080.792 1085.009 1079.526 1078.940 1078.008 1082.116 1078.822 1078.310 1079.302 1078.757 1085.963 1079.051 1085.246 1083.524 1080.954 1092.296 1079.444 1084.685 1085.470 1079.247 1089.557 1081.406 1080.742 1081.862 1079.571 1086.201 1085.363 1080.103 1084.052 1080.817 1080.362 1080.910 1081.223 1083.536 1084.600 1081.589 1081.782 1082.343 1087.120 1081.687 1080.997 1088.710 1081.562 1082.731 1084.132 1082.274 1084.095 1084.043 1082.844 1083.740 1089.533 1087.450 1082.312 1084.620 1090.446 1087.154 1092.967 1086.313 1084.493 1086.177 1086.900 1090.630 1087.894 1087.650 1088.750 1086.623 1096.800 1090.222 1087.049 1090.220 1089.338 1092.150 1092.404 1088.932 1091.015 1088.608 1089.739 1094.745 1088.889 1090.413 1093.141 1090.866 1095.668 1090.664 1090.718 1089.122 1091.220 1101.112 1088.915 1086.936 1089.825 1090.180 1093.928 1089.036 1087.993 1090.482 1086.714 1097.161 1089.913 1086.193 1090.008 1087.831 1096.890 1089.152 1090.179 1088.343 1087.546 1088.650 1090.320 1088.940 1088.347 1090.762 1088.499 1091.537 1091.558 1094.759 1091.413 1093.447 1096.780 1092.871 1103.517 1095.498 1095.531 1096.301 1093.465 1098.717 1094.460 1093.214 1097.448 1091.474 1094.426 1093.147 1092.424 1096.296 1091.050 1090.946 1101.417 1092.735 1091.932 1093.527 1110.953 1101.924 1097.158 1102.343 1100.804 1100.640 
DATE 2015:209:19:40:40 obsn  52 az 247 el 48 freq_MHz  1421.5000 Tsys 188.600 Tant 883.395 vlsr    9.45 glat 30.174 glon 205.836 source Sun 
Fstart 1420.497 fstop 1422.503 spacing 0.009375 bw    2.400 fbw    2.000 MHz nfreq 256 nsam 1048576 npoint 214 integ   118 sigma    0.179 bsw 0
Spectrum 
1079.093 1078.202 1073.588 1072.036 1075.059 1079.271 1076.621 1074.346 1076.735 1078.440 1075.399 1077.023 1080.369 1078.918 1078.448 1076.164 1081.128 1077.808 1076.160 1080.287 1076.232 1079.706 1078.358 1077.493 1079.494 1078.861 1076.699 1079.726 1078.021 1075.846 1077.044 1077.290 1084.159 1076.743 1076.653 1077.633 1075.281 1078.909 1089.074 1076.071 1080.672 1075.144 1080.674 1075.319 1074.615 1077.173 1075.302 1076.441 1075.486 1075.349 1076.377 1076.650 1076.044 1081.445 1075.762 1076.859 1078.116 1082.057 1079.301 1077.538 1078.767 1076.432 1076.855 1081.129 1079.084 1082.693 1098.381 1083.973 1080.520 1084.320 1079.237 1078.558 1077.663 1081.809 1078.350 1077.888 1078.974 1078.268 1085.589 1078.940 1084.775 1083.080 1080.553 1092.102 1079.137 1084.291 1085.265 1079.042 1089.193 1080.838 1080.533 1081.580 1079.206 1085.623 1085.106 1079.903 1083.617 1080.490 1080.132 1080.685 1080.960 1083.187 1084.341 1080.956 1081.357 1081.996 1086.777 1081.526 1080.639 1088.344 1081.280 1082.592 1083.808 1082.024 1083.574 1083.371 1082.382 1083.160 1089.026 1087.291 1081.784 1084.447 1090.095 1086.877 1092.528 1086.018 1084.212 1085.693 1086.428 1090.330 1087.476 1087.109 1088.506 1086.301 1096.422 1090.053 1086.790 1089.870 1089.072 1091.783 1092.066 1088.518 1090.409 1088.060 1089.278 1094.495 1088.312 1089.807 1092.698 1090.551 1095.258 1090.160 1090.348 1088.680 1090.908 1100.679 1088.621 1086.655 1089.266 1089.653 1093.444 1088.666 1087.541 1090.219 1086.444 1096.834 1089.506 1085.962 1089.612 1087.692 1096.498 1088.617 1089.751 1088.056 1087.122 1088.396 1090.050 1088.544 1087.965 1090.421 1088.141 1091.208 1091.097 1094.177 1090.926 1092.965 1096.635 1092.653 1103.147 1095.150 1094.986 1095.879 1093.078 1098.151 1094.188 1092.568 1097.136 1091.511 1094.084 1092.505 1091.872 1095.842 1090.961 1090.664 1100.869 1092.490 1091.551 1093.154 1110.448 1101.456 1096.668 1102.212 1100.632 1100.081 
DATE 2015:209:19:40:54 obsn  53 az 247 el 48 freq_MHz  1421.5000 Tsys 188.600 Tant 880.705 vlsr    9.45 glat 30.175 glon 205.837 source Sun 
Fstart 1420.497 fstop 1422.503 spacing 0.009375 bw    2.400 fbw    2.000 MHz nfreq 256 nsam 1048576 npoint 214 integ   120 sigma    0.178 bsw 0
Spectrum 
1078.734 1078.015 1073.389 1071.720 1074.746 1078.952 1076.085 1074.101 1076.527 1078.105 1075.181 1076.964 1079.745 1078.694 1078.237 1075.964 1081.076 1077.526 1075.921 1080.000 1075.929 1079.577 1078.152 1077.477 1079.441 1078.637 1076.567 1079.608 1077.822 1075.411 1076.831 1077.051 1084.025 1076.367 1076.470 1077.433 1075.059 1078.605 1088.697 1075.638 1080.326 1074.503 1080.477 1075.220 1074.316 1077.080 1075.117 1075.970 1075.324 1074.960 1075.967 1076.626 1075.707 1081.210 1075.581 1076.640 1077.965 1081.802 1079.031 1077.412 1078.419 1075.948 1076.630 1080.951 1078.752 1082.254 1098.216 1083.769 1080.416 1083.979 1078.935 1078.260 1077.524 1081.893 1078.189 1077.721 1078.729 1078.117 1085.222 1078.499 1084.505 1082.706 1080.453 1092.093 1079.015 1084.096 1085.050 1078.872 1088.932 1080.826 1080.200 1081.466 1079.091 1085.398 1084.885 1079.911 1083.384 1080.251 1079.905 1080.210 1080.687 1082.892 1084.230 1080.375 1081.357 1081.646 1086.429 1081.228 1080.364 1087.853 1080.879 1082.198 1083.653 1081.836 1083.172 1082.940 1082.233 1082.826 1088.708 1087.245 1081.581 1083.978 1089.924 1086.646 1092.387 1085.789 1084.177 1085.477 1086.112 1090.161 1087.319 1086.915 1088.151 1086.276 1096.307 1089.888 1086.769 1089.581 1088.748 1091.530 1092.042 1088.335 1089.951 1087.904 1088.978 1094.028 1088.268 1089.315 1092.480 1090.549 1094.811 1089.923 1090.128 1088.335 1090.461 1100.506 1088.361 1086.487 1088.974 1089.449 1093.008 1088.201 1087.257 1090.188 1086.043 1096.615 1089.250 1085.367 1089.318 1087.612 1096.334 1088.287 1089.412 1087.696 1086.866 1087.922 1089.880 1088.342 1087.810 1090.611 1087.899 1090.681 1091.021 1093.905 1090.722 1092.650 1096.249 1092.475 1102.722 1094.870 1094.817 1095.931 1093.045 1097.934 1093.997 1092.338 1096.676 1091.531 1093.852 1092.399 1091.511 1095.596 1090.777 1090.310 1100.678 1092.162 1091.191 1092.807 1110.427 1101.234 1096.512 1101.757 1100.339 1099.774 
DATE 2015:209:19:41:07 obsn  54 az 247 el 48 freq_MHz  1421.5000 Tsys 188.600 Tant 893.616 vlsr    9.45 glat 30.175 glon 205.837 source Sun 
Fstart 1420.497 fstop 1422.503 spacing 0.009375 bw    2.400 fbw    2.000 MHz nfreq 256 nsam 1048576 npoint 214 integ   122 sigma    0.176 bsw 0
Spectrum 
1078.446 1077.754 1073.188 1071.454 1074.662 1078.783 1076.062 1074.239 1076.318 1077.938 1074.974 1076.872 1079.897 1078.632 1078.233 1075.769 1080.635 1077.657 1075.841 1079.853 1075.894 1079.624 1078.268 1077.289 1079.270 1078.718 1076.591 1079.641 1077.820 1075.113 1076.705 1077.008 1083.903 1076.247 1076.199 1077.317 1074.986 1078.531 1089.019 1075.548 1080.277 1074.433 1080.537 1075.294 1074.453 1076.853 1074.969 1075.910 1075.116 1075.021 1075.921 1076.580 1075.542 1081.137 1075.433 1076.681 1078.072 1081.924 1078.929 1077.089 1078.359 1075.853 1076.596 1081.306 1078.658 1082.357 1098.098 1083.809 1080.448 1083.888 1078.838 1078.338 1077.117 1081.762 1078.068 1077.617 1078.667 1078.072 1085.142 1078.439 1084.339 1082.686 1080.143 1091.851 1079.045 1084.326 1085.087 1078.546 1088.922 1081.197 1080.389 1081.344 1078.772 1085.392 1085.055 1079.945 1083.359 1080.243 1080.046 1080.157 1080.510 1082.940 1084.309 1080.339 1081.421 1081.605 1086.365 1081.227 1080.203 1087.923 1080.802 1082.132 1083.529 1081.613 1083.109 1082.830 1082.348 1082.719 1088.853 1087.096 1081.628 1083.967 1089.724 1086.749 1092.460 1086.002 1083.962 1085.339 1086.082 1089.879 1087.231 1086.983 1087.869 1086.475 1096.024 1089.866 1086.752 1089.746 1088.665 1091.466 1092.018 1088.250 1089.729 1087.914 1088.808 1093.996 1088.000 1089.301 1092.340 1090.378 1094.672 1089.750 1090.083 1088.271 1090.356 1100.554 1088.283 1086.467 1088.819 1089.416 1092.693 1088.149 1087.427 1090.350 1085.870 1096.310 1089.180 1085.075 1089.150 1087.456 1096.076 1088.324 1089.428 1087.644 1086.619 1088.056 1090.011 1088.356 1087.495 1090.674 1088.002 1090.527 1090.887 1093.883 1090.948 1092.737 1096.190 1092.549 1102.495 1094.858 1094.764 1096.064 1093.199 1098.045 1093.883 1092.570 1096.636 1091.484 1093.816 1092.441 1091.226 1095.663 1090.721 1090.305 1100.778 1092.271 1091.261 1092.850 1110.325 1101.319 1096.416 1101.700 1100.127 1099.563 
DATE 2015:209:19:41:21 obsn  55 az 247 el 48 freq_MHz  1421.5000 Tsys 188.600 Tant 901.518 vlsr    9.45 glat 30.175 glon 205.837 source Sun 
Fstart 1420.497 fstop 1422.503 spacing 0.009375 bw    2.400 fbw    2.000 MHz nfreq 256 nsam 1048576 npoint 214 integ   125 sigma    0.175 bsw 0
Spectrum 
1078.613 1077.970 1073.370 1071.472 1074.691 1078.893 1076.006 1074.255 1076.495 1077.727 1075.162 1077.023 1079.955 1078.592 1078.201 1075.829 1080.540 1077.623 1076.054 1079.820 1076.226 1079.859 1078.635 1077.514 1079.395 1078.909 1076.579 1079.919 1077.967 1075.248 1076.998 1076.896 1084.174 1076.113 1076.106 1077.621 1075.288 1078.451 1088.906 1075.689 1080.475 1074.459 1080.786 1075.317 1074.412 1076.989 1075.053 1075.986 1075.108 1074.904 1075.987 1076.667 1075.646 1081.253 1075.544 1076.923 1078.188 1081.899 1079.005 1077.284 1078.444 1076.038 1076.879 1081.550 1078.895 1082.594 1098.127 1084.147 1080.836 1083.839 1078.772 1078.411 1077.424 1082.094 1078.206 1077.721 1078.700 1078.156 1085.234 1078.785 1084.389 1082.845 1080.057 1092.000 1078.846 1084.100 1085.301 1078.719 1089.043 1081.221 1080.508 1081.632 1079.143 1085.464 1085.408 1080.098 1083.536 1080.249 1080.166 1080.466 1080.654 1083.267 1084.330 1080.434 1081.418 1081.851 1086.405 1081.483 1080.361 1088.063 1081.115 1082.168 1083.578 1081.836 1083.277 1082.990 1082.317 1082.892 1088.862 1087.596 1081.601 1083.899 1089.785 1086.894 1092.445 1085.899 1084.140 1085.441 1086.047 1090.131 1087.339 1087.282 1088.203 1086.713 1096.291 1090.075 1086.914 1089.677 1088.966 1091.706 1092.140 1088.579 1089.781 1087.817 1088.994 1094.195 1088.116 1089.437 1092.604 1090.685 1094.799 1089.761 1090.120 1088.649 1090.477 1100.753 1088.182 1086.584 1088.937 1089.669 1092.920 1088.132 1087.486 1090.451 1086.253 1096.702 1089.236 1085.101 1089.114 1087.634 1096.506 1088.626 1089.679 1087.687 1086.735 1088.144 1090.077 1088.604 1087.659 1090.866 1088.397 1090.627 1090.961 1094.083 1091.060 1092.823 1096.515 1093.002 1102.879 1094.990 1094.785 1096.361 1093.493 1098.065 1093.876 1092.827 1096.801 1091.762 1093.831 1092.726 1091.294 1095.878 1090.980 1090.417 1100.999 1092.506 1091.383 1092.888 1110.529 1101.574 1096.590 1101.951 1100.152 1099.790 
DATE 2015:209:19:41:34 obsn  56 az 247 el 48 freq_MHz  1421.5000 Tsys 188.600 Tant 919.042 vlsr    9.45 glat 30.175 glon 205.837 source Sun 
Fstart 1420.497 fstop 1422.503 spacing 0.009375 bw    2.400 fbw    2.000 MHz nfreq 256 nsam 1048576 npoint 214 integ   127 sigma    0.173 bsw 0
Spectrum 
1078.899 1078.163 1073.523 1071.533 1074.901 1079.102 1075.976 1074.413 1076.798 1077.733 1075.288 1077.250 1080.306 1078.769 1078.363 1075.876 1080.888 1077.702 1076.253 1080.014 1076.445 1079.839 1078.813 1077.717 1079.487 1079.195 1076.819 1080.131 1077.813 1075.539 1077.287 1077.037 1084.377 1076.413 1076.174 1077.708 1075.479 1078.712 1089.249 1076.055 1080.654 1074.793 1080.979 1075.525 1074.581 1077.177 1074.911 1076.149 1075.126 1074.911 1076.104 1076.786 1075.781 1081.438 1075.742 1077.118 1078.629 1082.326 1079.512 1077.455 1078.626 1076.239 1077.064 1081.679 1078.969 1082.641 1098.090 1084.430 1081.028 1083.900 1078.960 1078.580 1077.549 1082.354 1078.512 1077.842 1078.741 1078.451 1085.349 1078.977 1084.730 1083.131 1080.452 1092.122 1079.088 1084.209 1085.456 1079.264 1089.454 1081.352 1080.574 1081.916 1079.479 1085.727 1085.227 1080.400 1083.584 1080.541 1080.304 1080.616 1080.901 1083.529 1084.594 1080.626 1081.574 1082.145 1086.538 1081.775 1080.790 1088.141 1081.298 1082.345 1083.954 1082.267 1083.615 1083.267 1082.436 1083.236 1089.098 1087.827 1081.849 1084.128 1089.917 1086.873 1092.529 1086.271 1084.237 1085.715 1086.410 1090.118 1087.527 1087.363 1088.390 1087.087 1096.412 1090.170 1087.235 1090.006 1089.230 1091.920 1092.302 1088.824 1090.078 1088.371 1089.392 1094.614 1088.397 1089.335 1092.697 1091.011 1094.926 1089.915 1090.207 1088.789 1090.761 1100.895 1088.234 1086.940 1089.238 1089.673 1093.029 1088.365 1087.725 1090.630 1086.393 1096.871 1089.268 1085.319 1089.254 1087.791 1096.605 1088.564 1089.775 1087.845 1086.851 1088.424 1090.473 1088.791 1087.796 1091.084 1088.811 1090.812 1091.247 1094.049 1091.342 1093.243 1096.737 1093.313 1103.244 1095.183 1095.153 1096.465 1093.601 1098.335 1094.119 1093.015 1097.053 1092.284 1094.108 1092.941 1091.628 1095.985 1091.336 1090.707 1101.415 1092.854 1091.490 1093.097 1110.704 1101.684 1096.696 1102.305 1100.237 1100.029 
DATE 2015:209:19:41:47 obsn  57 az 247 el 48 freq_MHz  1421.5000 Tsys 188.600 Tant 918.743 vlsr    9.45 glat 30.175 glon 205.837 source Sun 
Fstart 1420.497 fstop 1422.503 spacing 0.009375 bw    2.400 fbw    2.000 MHz nfreq 256 nsam 1048576 npoint 214 integ   129 sigma    0.172 bsw 0
Spectrum 
1079.234 1078.454 1073.772 1071.789 1075.012 1079.415 1076.223 1074.796 1076.976 1078.086 1075.445 1077.656 1080.492 1078.964 1078.667 1076.142 1081.055 1077.941 1076.521 1080.426 1076.850 1080.271 1079.065 1077.798 1079.672 1079.314 1077.140 1080.271 1078.186 1075.807 1077.606 1077.407 1084.562 1076.752 1076.378 1077.879 1075.705 1078.962 1089.405 1076.268 1080.818 1075.089 1081.246 1075.789 1074.887 1077.305 1075.410 1076.737 1075.309 1075.065 1076.329 1077.141 1076.124 1081.785 1076.213 1077.433 1078.861 1082.523 1079.722 1077.853 1079.056 1076.423 1077.378 1082.190 1079.361 1083.072 1098.610 1084.747 1081.138 1084.388 1079.238 1079.036 1077.981 1082.748 1078.598 1078.159 1078.936 1078.844 1085.737 1079.299 1085.011 1083.473 1080.878 1092.545 1079.475 1084.670 1085.610 1079.730 1089.472 1081.646 1081.082 1082.240 1079.845 1086.065 1085.670 1080.511 1084.002 1080.809 1080.556 1080.881 1080.933 1083.943 1084.806 1081.117 1081.769 1082.290 1086.700 1081.870 1081.076 1088.539 1081.552 1082.846 1084.328 1082.690 1083.760 1083.497 1082.605 1083.555 1089.278 1088.207 1082.151 1084.339 1090.305 1086.924 1092.894 1086.586 1084.566 1086.292 1086.737 1090.375 1087.763 1087.699 1088.578 1087.301 1096.974 1090.544 1087.516 1090.054 1089.417 1092.112 1092.608 1089.058 1090.466 1088.708 1089.435 1094.904 1088.563 1089.796 1092.927 1091.225 1095.307 1090.307 1090.421 1089.201 1090.979 1101.253 1088.497 1087.381 1089.745 1089.904 1093.367 1088.773 1088.293 1090.993 1086.595 1097.115 1089.645 1085.665 1089.505 1087.880 1096.996 1088.727 1089.959 1088.284 1087.313 1088.747 1090.737 1089.407 1088.165 1091.450 1089.094 1091.078 1091.416 1094.315 1091.507 1093.422 1096.949 1093.565 1103.739 1095.730 1095.376 1096.635 1093.840 1098.469 1094.406 1093.225 1097.323 1092.658 1094.325 1093.214 1091.779 1096.102 1091.674 1091.008 1101.805 1093.042 1091.448 1093.525 1111.088 1101.986 1096.913 1102.699 1100.585 1100.289 
DATE 2015:209:19:42:01 obsn  58 az 247 el 48 freq_MHz  1421.5000 Tsys 188.600 Tant 928.853 vlsr    9.45 glat 30.175 glon 205.837 source Sun 
Fstart 1420.497 fstop 1422.503 spacing 0.009375 bw    2.400 fbw    2.000 MHz nfreq 256 nsam 1048576 npoint 214 integ   131 sigma    0.170 bsw 0
Spectrum 
1079.714 1078.795 1074.111 1072.288 1075.101 1079.719 1076.578 1075.135 1077.215 1078.362 1075.947 1078.090 1080.973 1079.419 1078.988 1076.821 1081.481 1078.336 1076.754 1080.769 1077.165 1080.683 1079.552 1078.050 1080.196 1079.686 1077.579 1080.562 1078.397 1076.252 1078.014 1077.845 1084.653 1077.136 1076.671 1078.359 1076.260 1079.474 1089.797 1076.570 1081.402 1075.368 1081.566 1075.909 1075.252 1077.548 1075.810 1076.975 1075.561 1075.630 1076.638 1077.216 1076.408 1082.192 1076.851 1077.759 1079.211 1083.048 1080.205 1078.200 1079.272 1076.741 1077.587 1082.872 1079.670 1083.249 1098.993 1085.186 1081.577 1084.726 1079.443 1079.571 1078.225 1083.375 1078.848 1078.525 1079.361 1079.206 1086.499 1079.736 1085.455 1083.715 1081.456 1093.084 1079.863 1085.118 1086.014 1080.285 1089.753 1081.993 1081.428 1082.785 1080.303 1086.734 1086.110 1080.913 1084.536 1081.154 1081.051 1081.352 1081.400 1084.290 1085.097 1081.344 1082.017 1082.641 1086.984 1082.398 1081.337 1088.925 1082.016 1083.481 1084.702 1083.297 1084.070 1083.752 1082.876 1084.174 1089.671 1088.512 1082.246 1084.654 1090.625 1087.357 1093.459 1087.217 1085.003 1086.777 1087.011 1091.165 1088.178 1088.229 1088.733 1087.802 1097.467 1091.137 1087.959 1090.691 1089.739 1092.454 1093.047 1089.351 1090.887 1089.306 1089.765 1095.325 1089.010 1090.342 1093.245 1091.734 1095.762 1090.776 1090.943 1089.472 1091.489 1101.846 1088.854 1087.817 1089.839 1090.339 1093.743 1089.167 1088.628 1091.681 1087.049 1097.555 1090.272 1086.138 1089.946 1088.306 1097.545 1089.183 1090.389 1088.683 1087.627 1089.002 1090.975 1089.958 1088.521 1091.900 1089.425 1091.655 1091.594 1094.679 1091.803 1093.851 1097.326 1094.049 1104.185 1096.131 1095.902 1096.858 1094.247 1098.864 1094.870 1093.636 1097.608 1093.158 1094.734 1093.565 1092.386 1096.273 1092.017 1091.490 1102.151 1093.533 1092.028 1093.847 1111.399 1102.525 1097.118 1102.915 1100.972 1100.682 
DATE 2015:209:19:42:14 obsn  59 az 247 el 48 freq_MHz  1421.5000 Tsys 188.600 Tant 928.059 vlsr    9.45 glat 30.175 glon 205.837 source Sun 
Fstart 1420.497 fstop 1422.503 spacing 0.009375 bw    2.400 fbw    2.000 MHz nfreq 256 nsam 1048576 npoint 214 integ   133 sigma    0.169 bsw 0
Spectrum 
1080.186 1079.419 1074.602 1072.663 1075.685 1080.311 1076.837 1075.647 1077.843 1078.552 1076.520 1078.309 1081.655 1079.708 1079.454 1077.633 1081.837 1078.845 1077.280 1081.298 1077.701 1081.292 1079.965 1078.564 1080.636 1080.014 1078.084 1081.072 1078.894 1076.829 1078.592 1078.287 1085.060 1077.633 1077.260 1078.693 1076.679 1079.927 1090.229 1077.150 1081.922 1075.834 1081.862 1076.495 1075.607 1078.303 1076.461 1077.615 1076.098 1076.006 1077.020 1077.844 1076.923 1082.646 1077.196 1078.330 1079.750 1083.659 1080.911 1078.540 1079.810 1077.244 1078.184 1083.303 1080.282 1083.693 1099.660 1085.692 1081.859 1085.252 1079.837 1079.975 1078.478 1084.090 1079.339 1079.262 1079.946 1079.901 1086.843 1080.208 1086.053 1084.322 1082.080 1093.595 1080.271 1085.631 1086.535 1080.883 1090.176 1082.508 1081.870 1083.262 1081.028 1087.190 1086.670 1081.433 1085.112 1081.827 1081.449 1081.979 1081.906 1085.129 1085.688 1081.736 1082.629 1083.128 1087.303 1082.677 1081.945 1089.727 1082.573 1084.145 1085.287 1083.915 1084.343 1084.222 1083.279 1084.716 1090.178 1088.937 1082.837 1084.972 1090.779 1087.952 1093.989 1087.859 1085.410 1087.108 1087.451 1091.787 1088.829 1088.690 1089.332 1088.403 1097.769 1091.587 1088.513 1091.247 1090.443 1092.932 1093.383 1089.970 1091.327 1089.751 1090.107 1096.019 1089.737 1091.061 1093.570 1092.209 1096.193 1091.262 1091.329 1089.909 1091.899 1101.928 1089.698 1088.619 1090.402 1090.782 1094.468 1089.549 1089.057 1092.173 1087.502 1098.079 1090.538 1086.678 1090.295 1088.598 1098.210 1089.697 1090.843 1088.952 1088.213 1089.365 1091.219 1090.318 1089.132 1092.148 1089.835 1092.253 1092.083 1095.099 1092.343 1094.526 1097.878 1094.433 1104.496 1096.628 1096.368 1097.327 1094.872 1099.332 1095.288 1094.080 1098.103 1093.642 1095.299 1093.915 1092.863 1096.623 1092.533 1092.015 1102.718 1093.924 1092.522 1094.104 1111.906 1103.029 1097.520 1103.510 1101.618 1101.317 
DATE 2015:209:19:42:27 obsn  60 az 247 el 48 freq_MHz  1421.5000 Tsys 188.600 Tant 935.227 vlsr    9.45 glat 30.175 glon 205.837 source Sun 
Fstart 1420.497 fstop 1422.503 spacing 0.009375 bw    2.400 fbw    2.000 MHz nfreq 256 nsam 1048576 npoint 214 integ   135 sigma    0.167 bsw 0
Spectrum 
1080.771 1080.067 1075.140 1073.206 1076.315 1080.766 1077.291 1076.134 1078.293 1079.081 1077.164 1078.871 1082.357 1080.215 1079.969 1078.256 1082.237 1079.261 1077.911 1081.638 1078.220 1081.887 1080.314 1078.907 1081.160 1080.696 1078.527 1081.661 1079.524 1077.400 1079.062 1078.761 1085.555 1078.018 1077.949 1079.137 1077.315 1080.628 1090.808 1077.596 1082.562 1076.216 1082.651 1076.967 1076.003 1078.866 1077.015 1078.142 1076.575 1076.654 1077.468 1078.323 1077.379 1083.174 1077.792 1079.008 1080.331 1084.183 1081.691 1079.047 1080.355 1077.802 1078.581 1083.883 1080.991 1084.275 1100.019 1086.141 1082.448 1085.780 1080.258 1080.541 1078.940 1084.625 1080.096 1079.724 1080.429 1080.554 1087.245 1080.956 1086.638 1084.781 1082.493 1094.119 1081.037 1086.326 1087.038 1081.628 1091.016 1083.177 1082.409 1083.891 1081.629 1087.776 1087.185 1081.806 1085.528 1082.443 1082.058 1082.465 1082.469 1085.616 1086.342 1082.276 1083.231 1083.839 1087.991 1083.126 1082.396 1090.314 1083.155 1084.595 1085.736 1084.440 1084.989 1084.751 1083.933 1085.341 1090.527 1089.536 1083.464 1085.692 1091.272 1088.455 1094.650 1088.428 1085.668 1087.648 1088.038 1092.529 1089.234 1089.151 1090.111 1088.883 1098.321 1092.226 1089.139 1091.911 1091.008 1093.482 1094.115 1090.474 1091.765 1090.367 1090.686 1096.614 1090.264 1091.480 1094.076 1092.793 1096.778 1091.777 1091.930 1090.785 1092.284 1102.268 1090.198 1089.363 1090.974 1091.362 1095.015 1089.945 1089.764 1092.707 1087.917 1098.613 1090.821 1087.152 1090.769 1089.083 1098.570 1090.393 1091.451 1089.700 1088.821 1090.015 1091.642 1091.203 1089.598 1092.794 1090.321 1092.825 1092.608 1095.640 1092.911 1095.139 1098.395 1094.684 1105.051 1097.266 1097.001 1097.812 1095.414 1099.764 1095.764 1094.912 1098.590 1093.840 1095.916 1094.437 1093.537 1097.118 1093.062 1092.617 1103.518 1094.441 1092.958 1094.582 1112.358 1103.449 1097.943 1103.873 1102.164 1102.000 
DATE 2015:209:19:42:43 obsn  61 az 248 el 48 freq_MHz  1421.5000 Tsys 188.600 Tant 891.783 vlsr    9.45 glat 30.176 glon 205.837 source Sun 
Fstart 1420.497 fstop 1422.503 spacing 0.009375 bw    2.400 fbw    2.000 MHz nfreq 256 nsam 1048576 npoint 214 integ   138 sigma    0.166 bsw 0
Spectrum 
1081.256 1080.543 1075.530 1073.746 1076.618 1081.401 1077.717 1076.581 1078.928 1079.249 1077.472 1079.300 1082.606 1080.400 1080.449 1078.413 1082.560 1079.665 1078.338 1081.978 1078.636 1082.221 1080.798 1079.020 1081.659 1081.250 1078.873 1081.869 1079.749 1077.973 1079.611 1079.225 1086.012 1078.406 1078.475 1079.648 1077.726 1080.944 1091.215 1077.776 1082.995 1076.495 1083.269 1077.369 1076.555 1079.356 1077.590 1078.526 1076.914 1077.176 1077.656 1078.832 1077.853 1083.694 1078.208 1079.658 1080.583 1084.493 1081.781 1079.181 1080.724 1078.195 1078.986 1084.431 1081.152 1084.730 1100.368 1086.347 1082.854 1086.284 1080.570 1081.007 1079.333 1084.858 1080.553 1079.984 1081.001 1080.800 1087.737 1081.443 1087.037 1085.113 1082.837 1094.327 1081.269 1086.762 1087.417 1082.241 1091.509 1083.687 1082.725 1084.346 1082.096 1087.927 1087.450 1082.134 1085.951 1082.824 1082.460 1082.826 1082.918 1086.150 1086.794 1082.542 1083.661 1084.292 1088.554 1083.582 1082.606 1090.823 1083.422 1084.927 1086.041 1084.624 1085.274 1085.127 1084.319 1085.772 1090.727 1089.823 1083.940 1085.998 1091.360 1088.960 1095.200 1088.942 1086.210 1088.150 1088.610 1093.079 1089.461 1089.557 1090.502 1089.416 1098.857 1092.679 1089.559 1092.270 1091.456 1093.800 1094.459 1090.922 1092.129 1090.686 1091.019 1096.886 1090.689 1091.896 1094.469 1093.221 1097.037 1092.135 1092.243 1091.068 1092.727 1102.742 1090.586 1089.884 1091.387 1091.854 1095.429 1090.357 1089.984 1093.000 1088.448 1099.086 1091.132 1087.442 1091.203 1089.513 1098.836 1090.757 1091.856 1090.152 1089.325 1090.700 1091.821 1091.572 1089.860 1093.229 1090.781 1093.445 1092.883 1096.030 1093.254 1095.374 1098.824 1095.177 1105.492 1097.757 1097.494 1098.187 1095.751 1100.157 1096.319 1095.183 1099.074 1094.099 1096.202 1094.640 1093.858 1097.493 1093.235 1092.921 1103.579 1094.658 1093.337 1095.002 1112.842 1103.849 1098.368 1104.193 1102.409 1102.309 
DATE 2015:209:19:42:56 obsn  62 az 248 el 48 freq_MHz  1421.5000 Tsys 188.600 Tant 893.702 vlsr    9.45 glat 30.176 glon 205.837 source Sun 
Fstart 1420.497 fstop 1422.503 spacing 0.009375 bw    2.400 fbw    2.000 MHz nfreq 256 nsam 1048576 npoint 214 integ   140 sigma    0.165 bsw 0
Spectrum 
1081.022 1080.414 1075.560 1073.776 1076.381 1081.191 1077.757 1076.556 1078.578 1079.271 1077.400 1079.067 1082.641 1080.419 1080.160 1078.272 1082.514 1079.535 1078.321 1081.948 1078.441 1081.901 1080.881 1078.927 1081.603 1081.202 1078.926 1081.773 1079.510 1077.953 1079.276 1079.219 1085.927 1078.352 1078.613 1079.620 1077.650 1080.953 1090.862 1077.513 1082.922 1076.491 1082.974 1077.033 1076.400 1079.233 1077.553 1078.550 1076.980 1077.169 1077.695 1078.890 1077.731 1083.454 1078.018 1079.527 1080.340 1084.325 1081.551 1079.028 1080.415 1078.016 1078.935 1084.387 1081.288 1084.740 1100.119 1086.179 1082.652 1086.215 1080.472 1080.865 1079.288 1084.754 1080.429 1079.960 1080.736 1080.509 1087.747 1081.277 1086.778 1085.221 1082.748 1094.064 1081.103 1086.770 1087.333 1082.330 1091.514 1083.461 1082.685 1084.390 1082.034 1087.903 1087.466 1082.070 1085.819 1082.806 1082.482 1082.668 1082.788 1085.967 1086.451 1082.472 1083.451 1084.236 1088.525 1083.478 1082.466 1090.923 1083.326 1084.912 1085.917 1084.498 1085.083 1085.070 1084.513 1085.696 1090.554 1089.490 1083.878 1085.921 1091.343 1089.011 1094.977 1088.771 1086.006 1088.091 1088.370 1092.989 1089.347 1089.549 1090.344 1089.257 1098.731 1092.733 1089.492 1091.930 1091.391 1093.707 1094.319 1090.813 1091.793 1090.607 1091.001 1096.854 1090.519 1091.676 1094.476 1092.880 1096.770 1092.009 1092.034 1090.971 1092.615 1102.510 1090.721 1089.759 1091.302 1091.669 1095.434 1090.351 1089.957 1093.170 1088.542 1098.831 1090.972 1087.319 1091.188 1089.563 1098.666 1090.566 1091.856 1090.044 1089.125 1090.442 1091.833 1091.692 1089.886 1093.156 1090.857 1093.393 1092.810 1096.083 1093.183 1095.417 1098.878 1095.159 1105.359 1097.633 1097.270 1098.030 1095.673 1100.212 1096.289 1095.069 1098.734 1094.007 1096.054 1094.655 1093.918 1097.504 1093.277 1092.963 1103.388 1094.716 1093.151 1094.788 1112.789 1103.727 1098.288 1104.079 1102.223 1102.185 
DATE 2015:209:19:43:09 obsn  63 az 248 el 48 freq_MHz  1421.5000 Tsys 188.600 Tant 908.062 vlsr    9.45 glat 30.176 glon 205.838 source Sun 
Fstart 1420.497 fstop 1422.503 spacing 0.009375 bw    2.400 fbw    2.000 MHz nfreq 256 nsam 1048576 npoint 214 integ   142 sigma    0.163 bsw 0
Spectrum 
1081.058 1080.531 1075.653 1073.833 1076.354 1081.187 1077.849 1076.576 1078.345 1079.296 1077.421 1079.430 1082.812 1080.554 1080.318 1078.349 1082.573 1079.701 1078.314 1081.884 1078.575 1081.877 1080.637 1078.725 1081.675 1081.126 1079.044 1081.688 1079.622 1078.119 1079.567 1079.286 1085.935 1078.441 1078.680 1079.733 1077.711 1081.244 1090.938 1077.633 1082.992 1076.536 1083.037 1077.011 1076.449 1079.162 1077.622 1078.451 1076.967 1077.156 1077.872 1078.797 1077.827 1083.566 1078.237 1079.419 1080.365 1084.324 1081.712 1078.998 1080.434 1077.948 1078.938 1084.355 1081.281 1084.788 1100.212 1086.346 1082.829 1086.210 1080.691 1080.528 1079.415 1085.003 1080.409 1080.272 1081.040 1080.585 1087.649 1081.246 1087.018 1085.303 1082.797 1094.086 1081.030 1087.072 1087.391 1082.318 1091.526 1083.676 1082.842 1084.394 1082.408 1088.038 1087.458 1082.105 1085.878 1082.877 1082.472 1082.740 1083.032 1086.157 1086.424 1082.733 1083.517 1084.313 1088.417 1083.386 1082.465 1091.140 1083.361 1085.068 1085.968 1084.653 1085.346 1085.072 1084.517 1085.774 1090.618 1089.485 1083.962 1086.147 1091.307 1089.125 1094.964 1089.010 1086.099 1088.131 1088.318 1093.178 1089.145 1089.641 1090.335 1089.495 1098.690 1092.865 1089.496 1092.106 1091.490 1093.805 1094.407 1090.875 1092.109 1090.737 1090.976 1096.845 1090.462 1091.928 1094.644 1092.785 1096.907 1092.253 1092.072 1091.036 1092.586 1102.591 1090.611 1089.743 1091.464 1091.668 1095.662 1090.508 1090.147 1093.342 1088.596 1098.934 1091.031 1087.564 1091.370 1089.609 1098.666 1090.744 1091.914 1090.075 1089.357 1090.649 1091.723 1091.550 1090.061 1093.276 1090.888 1093.411 1092.703 1096.132 1093.265 1095.699 1098.783 1094.970 1105.341 1097.617 1097.399 1098.056 1095.627 1100.149 1096.229 1095.188 1098.748 1094.114 1095.947 1094.780 1094.076 1097.740 1093.207 1093.021 1103.531 1094.750 1093.142 1094.803 1112.852 1103.781 1098.278 1103.982 1102.335 1102.192 
DATE 2015:209:19:43:22 obsn  64 az 248 el 48 freq_MHz  1421.5000 Tsys 188.600 Tant 916.055 vlsr    9.45 glat 30.176 glon 205.838 source Sun 
Fstart 1420.497 fstop 1422.503 spacing 0.009375 bw    2.400 fbw    2.000 MHz nfreq 256 nsam 1048576 npoint 214 integ   144 sigma    0.162 bsw 0
Spectrum 
1081.210 1080.734 1075.840 1073.952 1076.485 1081.289 1078.170 1076.794 1078.563 1079.302 1077.675 1079.644 1082.772 1080.806 1080.774 1078.581 1082.717 1079.804 1078.499 1082.178 1078.668 1081.907 1080.892 1078.878 1081.824 1081.125 1079.198 1081.900 1079.752 1078.222 1079.569 1079.219 1085.999 1078.624 1078.674 1079.873 1077.778 1081.404 1091.004 1077.725 1082.955 1076.694 1083.194 1077.018 1076.808 1079.307 1077.798 1078.461 1077.056 1077.376 1078.105 1079.015 1077.969 1083.615 1078.461 1079.642 1080.589 1084.257 1081.819 1079.215 1080.660 1078.148 1078.965 1084.574 1081.725 1084.898 1100.257 1086.505 1083.010 1086.377 1080.915 1080.935 1079.676 1084.935 1080.617 1080.292 1081.331 1080.835 1087.825 1081.687 1087.262 1085.498 1082.959 1094.366 1081.238 1087.150 1087.734 1082.659 1091.664 1083.745 1082.982 1084.652 1082.557 1088.186 1087.438 1082.165 1085.907 1082.905 1082.526 1082.911 1083.136 1086.476 1086.702 1082.802 1083.643 1084.563 1088.343 1083.428 1082.579 1091.241 1083.498 1085.119 1086.255 1084.842 1085.636 1085.162 1084.478 1086.002 1090.640 1089.601 1084.117 1086.397 1091.292 1089.056 1095.290 1088.925 1086.182 1088.267 1088.526 1093.396 1089.256 1089.838 1090.531 1089.699 1098.791 1092.959 1089.689 1092.367 1091.608 1093.974 1094.806 1091.077 1092.323 1090.821 1091.266 1096.695 1090.481 1092.072 1094.715 1093.111 1096.927 1092.499 1092.275 1091.190 1092.844 1102.627 1090.656 1089.801 1091.654 1091.870 1095.824 1090.594 1090.340 1093.485 1088.987 1099.159 1091.283 1087.634 1091.324 1089.743 1098.781 1090.899 1092.112 1090.441 1089.554 1090.904 1091.912 1091.698 1090.264 1093.395 1091.189 1093.486 1092.778 1096.257 1093.472 1095.781 1098.790 1095.021 1105.456 1097.644 1097.428 1098.011 1095.825 1100.201 1096.407 1095.275 1098.628 1094.131 1096.113 1094.818 1094.439 1097.736 1093.376 1093.252 1103.744 1094.965 1093.358 1094.798 1112.939 1104.012 1098.179 1104.167 1102.588 1102.235 
DATE 2015:209:19:43:36 obsn  65 az 248 el 48 freq_MHz  1421.5000 Tsys 188.600 Tant 923.276 vlsr    9.45 glat 30.176 glon 205.838 source Sun 
Fstart 1420.497 fstop 1422.503 spacing 0.009375 bw    2.400 fbw    2.000 MHz nfreq 256 nsam 1048576 npoint 214 integ   146 sigma    0.161 bsw 0
Spectrum 
1081.425 1081.091 1076.092 1074.122 1076.674 1081.547 1078.510 1076.932 1078.782 1079.501 1077.798 1079.708 1082.970 1080.810 1081.180 1078.868 1083.129 1079.953 1078.638 1082.359 1078.944 1082.079 1081.093 1079.333 1081.947 1081.518 1079.542 1082.096 1079.790 1078.429 1079.900 1079.399 1086.430 1078.736 1079.078 1080.098 1077.991 1081.775 1091.316 1077.964 1083.116 1077.054 1083.565 1077.273 1076.997 1079.582 1078.020 1078.715 1077.203 1077.716 1078.383 1079.089 1078.038 1083.882 1078.650 1079.707 1080.603 1084.565 1082.099 1079.555 1080.810 1078.299 1079.029 1084.849 1081.866 1085.171 1100.571 1086.793 1083.353 1086.582 1081.159 1081.108 1079.897 1085.176 1080.970 1080.546 1081.390 1081.144 1087.919 1081.863 1087.463 1085.671 1083.171 1094.650 1081.580 1087.397 1087.986 1083.048 1092.134 1083.880 1083.318 1084.761 1082.751 1088.451 1087.677 1082.539 1086.175 1083.425 1082.865 1083.177 1083.345 1086.849 1086.871 1082.974 1083.948 1084.646 1088.552 1083.574 1082.884 1091.502 1083.982 1085.232 1086.500 1085.034 1085.733 1085.419 1084.882 1086.261 1091.034 1089.943 1084.385 1086.760 1091.554 1089.326 1095.700 1089.344 1086.407 1088.513 1088.543 1093.645 1089.636 1090.245 1090.882 1089.834 1099.197 1093.120 1089.826 1092.625 1092.060 1094.347 1095.021 1091.208 1092.701 1090.920 1091.612 1097.010 1090.862 1092.420 1094.893 1093.350 1097.225 1092.633 1092.455 1091.479 1093.139 1102.911 1090.868 1090.185 1091.827 1092.101 1096.075 1090.828 1090.805 1093.757 1089.242 1099.292 1091.627 1087.664 1091.713 1090.076 1099.023 1091.062 1092.512 1090.872 1089.922 1091.184 1092.108 1091.928 1090.582 1093.656 1091.677 1093.760 1093.043 1096.294 1093.661 1095.710 1099.037 1095.244 1105.659 1097.810 1097.552 1098.213 1095.901 1100.448 1096.780 1095.408 1098.650 1094.389 1096.593 1095.153 1094.584 1098.010 1093.637 1093.527 1103.904 1095.239 1093.700 1094.943 1113.319 1104.229 1098.480 1104.586 1102.854 1102.464 
DATE 2015:209:19:43:49 obsn  66 az 248 el 48 freq_MHz  1421.5000 Tsys 188.600 Tant 938.845 vlsr    9.45 glat 30.176 glon 205.838 source Sun 
Fstart 1420.497 fstop 1422.503 spacing 0.009375 bw    2.400 fbw    2.000 MHz nfreq 256 nsam 1048576 npoint 214 integ   149 sigma    0.160 bsw 0
Spectrum 
1081.852 1081.561 1076.428 1074.438 1077.199 1082.017 1078.897 1077.481 1079.319 1079.740 1078.162 1080.228 1083.489 1081.231 1081.514 1079.063 1083.581 1080.079 1078.886 1082.932 1079.522 1082.635 1081.415 1079.842 1082.473 1081.854 1080.039 1082.404 1080.214 1078.931 1080.407 1079.748 1086.762 1079.254 1079.311 1080.576 1078.300 1082.454 1092.031 1078.510 1083.445 1077.553 1084.020 1077.729 1077.576 1080.217 1078.356 1079.183 1077.676 1078.198 1078.771 1079.530 1078.342 1084.346 1079.208 1079.851 1081.029 1085.018 1082.318 1080.029 1081.215 1078.758 1079.383 1085.286 1082.355 1085.660 1100.636 1087.199 1083.693 1086.909 1081.519 1081.396 1080.463 1085.497 1081.440 1080.996 1081.895 1081.546 1088.322 1082.219 1087.995 1085.964 1083.435 1095.108 1081.892 1087.863 1088.184 1083.408 1092.504 1084.317 1083.653 1085.349 1083.115 1088.879 1088.042 1082.904 1086.669 1083.860 1083.375 1083.601 1083.574 1087.320 1087.373 1083.425 1084.222 1084.883 1088.832 1083.835 1083.080 1092.018 1084.579 1085.613 1087.025 1085.299 1086.354 1085.755 1085.150 1086.707 1091.604 1090.430 1084.671 1087.109 1092.026 1089.717 1095.917 1089.609 1086.952 1088.977 1088.919 1093.806 1090.135 1090.899 1091.364 1090.095 1099.724 1093.285 1090.236 1093.215 1092.275 1094.743 1095.372 1091.790 1092.971 1091.160 1091.996 1097.479 1091.397 1092.490 1095.344 1093.669 1097.693 1092.857 1092.905 1091.787 1093.342 1103.308 1091.197 1090.646 1092.055 1092.409 1096.427 1091.052 1091.121 1094.083 1089.579 1099.698 1092.094 1087.939 1092.085 1090.550 1099.553 1091.614 1093.090 1091.342 1090.442 1091.430 1092.457 1092.219 1090.993 1093.886 1092.146 1094.275 1093.414 1096.526 1093.932 1096.030 1099.526 1095.694 1106.059 1098.232 1097.759 1098.554 1096.123 1100.736 1097.188 1095.689 1099.151 1094.709 1096.722 1095.476 1094.804 1098.529 1094.079 1094.063 1104.448 1095.532 1094.171 1095.277 1113.700 1104.762 1098.940 1104.970 1103.288 1102.913 
DATE 2015:209:19:44:02 obsn  67 az 248 el 48 freq_MHz  1421.5000 Tsys 188.600 Tant 935.671 vlsr    9.45 glat 30.176 glon 205.838 source Sun 
Fstart 1420.497 fstop 1422.503 spacing 0.009375 bw    2.400 fbw    2.000 MHz nfreq 256 nsam 1048576 npoint 214 integ   151 sigma    0.159 bsw 0
Spectrum 
1082.064 1081.906 1076.856 1074.974 1077.568 1082.568 1079.451 1078.273 1079.809 1080.214 1078.548 1080.842 1083.970 1081.689 1082.005 1079.328 1083.992 1080.503 1079.438 1083.573 1079.915 1082.958 1081.718 1080.415 1082.909 1082.418 1080.627 1082.824 1080.757 1079.342 1080.798 1080.360 1087.050 1079.885 1079.990 1081.090 1078.934 1082.857 1092.497 1078.985 1084.069 1078.007 1084.575 1078.297 1078.058 1080.625 1078.690 1079.664 1078.063 1078.511 1079.424 1079.912 1078.795 1084.962 1079.708 1080.516 1081.516 1085.533 1082.700 1080.507 1081.663 1079.330 1079.978 1085.697 1083.081 1086.088 1101.000 1087.595 1084.210 1087.368 1082.090 1081.826 1081.166 1085.958 1081.918 1081.683 1082.269 1082.048 1088.652 1082.867 1088.292 1086.303 1083.942 1095.741 1082.318 1088.259 1088.793 1083.937 1093.000 1084.896 1083.998 1085.865 1083.669 1089.326 1088.696 1083.536 1087.195 1084.363 1083.892 1084.239 1083.786 1087.675 1088.105 1083.769 1084.718 1085.355 1089.398 1084.291 1083.577 1092.464 1085.013 1086.270 1087.535 1085.901 1086.881 1086.297 1085.557 1087.233 1092.112 1090.852 1085.306 1087.507 1092.553 1090.226 1096.474 1090.041 1087.517 1089.520 1089.405 1094.333 1090.680 1091.319 1091.861 1090.495 1100.173 1093.677 1090.565 1093.849 1092.675 1095.396 1095.818 1092.226 1093.416 1091.592 1092.516 1098.020 1091.634 1093.081 1095.712 1094.024 1098.179 1093.247 1093.488 1092.527 1093.846 1103.799 1091.532 1091.122 1092.466 1092.928 1097.178 1091.569 1091.577 1094.478 1089.954 1100.072 1092.691 1088.402 1092.470 1090.958 1100.109 1092.116 1093.635 1091.722 1090.705 1091.847 1093.141 1092.734 1091.488 1094.331 1092.604 1094.865 1093.892 1096.997 1094.370 1096.677 1100.067 1096.300 1106.765 1098.649 1098.284 1099.033 1096.611 1101.183 1097.663 1096.116 1099.687 1095.279 1097.174 1095.764 1095.213 1098.942 1094.551 1094.602 1104.966 1096.046 1094.587 1095.801 1114.297 1105.106 1099.233 1105.256 1103.719 1103.393 
DATE 2015:209:19:44:15 obsn  68 az 248 el 48 freq_MHz  1421.5000 Tsys 188.600 Tant 949.013 vlsr    9.45 glat 30.176 glon 205.838 source Sun 
Fstart 1420.497 fstop 1422.503 spacing 0.009375 bw    2.400 fbw    2.000 MHz nfreq 256 nsam 1048576 npoint 214 integ   153 sigma    0.158 bsw 0
Spectrum 
1082.768 1082.595 1077.166 1075.627 1078.236 1083.193 1080.060 1078.945 1080.250 1080.692 1079.013 1081.356 1084.593 1082.283 1082.542 1079.752 1084.630 1081.085 1080.086 1083.942 1080.503 1083.564 1082.197 1080.841 1083.538 1082.905 1081.281 1083.413 1081.239 1079.914 1081.227 1080.943 1087.633 1080.519 1080.547 1081.538 1079.436 1083.498 1093.012 1079.581 1084.730 1078.533 1085.162 1078.913 1078.456 1081.464 1079.209 1080.071 1078.458 1078.892 1079.907 1080.361 1079.152 1085.612 1080.366 1081.070 1082.060 1086.155 1083.333 1081.015 1082.221 1079.829 1080.485 1086.165 1083.476 1086.566 1101.485 1087.938 1084.800 1088.022 1082.771 1082.469 1081.528 1086.575 1082.538 1082.285 1082.866 1082.693 1089.405 1083.580 1088.901 1086.826 1084.451 1096.286 1082.976 1088.813 1089.393 1084.556 1093.740 1085.471 1084.559 1086.278 1084.229 1089.869 1089.311 1084.108 1087.664 1084.757 1084.595 1084.806 1084.212 1088.344 1088.632 1084.392 1085.349 1085.828 1089.833 1084.810 1084.180 1093.154 1085.736 1086.851 1088.089 1086.260 1087.273 1086.759 1086.059 1087.578 1092.728 1091.345 1085.650 1087.872 1093.060 1090.880 1096.995 1090.409 1088.141 1089.985 1089.752 1094.724 1091.157 1091.842 1092.536 1091.164 1100.853 1094.208 1091.026 1094.541 1093.314 1096.073 1096.498 1092.734 1094.026 1092.055 1093.072 1098.548 1092.173 1093.523 1096.202 1094.514 1098.711 1093.793 1094.033 1093.091 1094.254 1104.336 1092.202 1091.763 1093.222 1093.532 1097.842 1092.117 1092.253 1094.998 1090.365 1100.598 1093.298 1088.853 1092.821 1091.484 1100.830 1092.767 1094.125 1092.167 1091.316 1092.688 1093.596 1093.206 1092.194 1094.804 1093.235 1095.441 1094.442 1097.561 1094.870 1097.209 1100.750 1096.763 1107.301 1099.366 1098.678 1099.707 1097.059 1101.762 1098.335 1096.544 1100.079 1095.944 1097.628 1096.423 1095.828 1099.385 1095.085 1095.212 1105.274 1096.459 1095.147 1096.452 1114.859 1105.631 1099.863 1105.845 1104.238 1103.913 
DATE 2015:209:19:44:29 obsn  69 az 248 el 48 freq_MHz  1421.5000 Tsys 188.600 Tant 950.259 vlsr    9.45 glat 30.176 glon 205.838 source Sun 
Fstart 1420.497 fstop 1422.503 spacing 0.009375 bw    2.400 fbw    2.000 MHz nfreq 256 nsam 1048576 npoint 214 integ   155 sigma    0.156 bsw 0
Spectrum 
1083.354 1083.191 1077.690 1076.272 1078.919 1083.536 1080.901 1079.746 1080.943 1081.118 1079.593 1082.010 1084.986 1082.709 1083.090 1080.278 1085.235 1081.599 1080.728 1084.603 1081.105 1084.170 1082.795 1081.418 1084.188 1083.619 1081.899 1083.975 1081.871 1080.327 1081.862 1081.613 1088.260 1081.182 1081.140 1082.156 1079.812 1083.809 1093.463 1079.953 1085.255 1079.116 1085.778 1079.569 1079.173 1082.142 1079.703 1080.790 1079.196 1079.340 1080.430 1080.934 1079.660 1086.252 1080.921 1081.639 1082.747 1086.768 1084.043 1081.760 1082.844 1080.372 1081.209 1086.795 1084.018 1087.084 1102.090 1088.515 1085.420 1088.735 1083.337 1083.179 1082.103 1087.185 1083.286 1083.050 1083.556 1083.505 1090.024 1084.129 1089.479 1087.443 1084.992 1096.911 1083.634 1089.457 1090.000 1085.052 1094.354 1086.070 1084.969 1086.962 1084.835 1090.505 1089.918 1084.650 1088.224 1085.448 1085.114 1085.398 1084.812 1089.165 1089.564 1085.113 1085.898 1086.406 1090.576 1085.524 1084.705 1093.852 1086.464 1087.478 1088.860 1086.728 1087.841 1087.214 1086.733 1088.131 1093.116 1091.773 1086.345 1088.650 1093.650 1091.396 1097.721 1091.040 1088.674 1090.630 1090.454 1095.173 1091.759 1092.364 1093.163 1091.683 1101.367 1094.840 1091.613 1095.097 1093.827 1096.761 1097.075 1093.385 1094.545 1092.529 1093.448 1099.056 1092.779 1094.013 1096.893 1095.219 1099.484 1094.319 1094.745 1093.812 1094.601 1104.793 1092.550 1092.427 1094.090 1094.099 1098.299 1092.838 1092.847 1095.552 1090.997 1101.039 1094.056 1089.424 1093.391 1092.031 1101.560 1093.396 1094.765 1092.650 1092.034 1093.227 1094.057 1093.993 1092.901 1095.263 1093.821 1096.147 1095.152 1098.125 1095.364 1097.714 1101.462 1097.206 1107.841 1100.055 1099.328 1100.297 1097.860 1102.458 1098.977 1097.137 1100.785 1096.719 1098.398 1096.926 1096.304 1099.748 1095.671 1095.881 1106.003 1096.987 1095.691 1097.135 1115.506 1106.190 1100.433 1106.445 1105.030 1104.404 
DATE 2015:209:19:44:42 obsn  70 az 248 el 48 freq_MHz  1421.5000 Tsys 188.600 Tant 948.197 vlsr    9.45 glat 30.177 glon 205.838 source Sun 
Fstart 1420.497 fstop 1422.503 spacing 0.009375 bw    2.400 fbw    2.000 MHz nfreq 256 nsam 1048576 npoint 214 integ   157 sigma    0.155 bsw 0
Spectrum 
1084.248 1083.838 1078.382 1076.950 1079.644 1084.212 1081.568 1080.369 1081.788 1081.898 1080.411 1082.837 1085.639 1083.415 1083.841 1081.033 1085.905 1082.167 1081.388 1085.164 1081.849 1084.796 1083.669 1082.162 1084.754 1084.020 1082.514 1084.539 1082.576 1081.139 1082.542 1082.284 1088.938 1081.834 1081.924 1082.783 1080.620 1084.519 1093.964 1080.617 1086.118 1079.806 1086.488 1080.197 1079.851 1082.864 1080.423 1081.484 1079.901 1079.938 1081.122 1081.494 1080.310 1086.927 1081.607 1082.280 1083.477 1087.420 1084.696 1082.444 1083.422 1081.075 1082.047 1087.493 1084.664 1087.636 1102.770 1089.206 1086.164 1089.263 1083.949 1083.954 1082.804 1088.044 1083.997 1083.811 1084.239 1084.188 1090.676 1085.077 1090.086 1088.205 1085.734 1097.428 1084.244 1090.203 1090.614 1085.562 1094.921 1086.818 1085.726 1087.532 1085.445 1091.299 1090.667 1085.184 1088.865 1086.115 1085.990 1086.098 1085.441 1089.980 1090.173 1085.685 1086.583 1086.919 1091.088 1086.179 1085.604 1094.562 1087.073 1088.158 1089.529 1087.497 1088.588 1087.877 1087.575 1088.799 1093.960 1092.315 1087.045 1089.260 1094.384 1092.051 1098.562 1091.869 1089.400 1091.147 1091.293 1095.888 1092.475 1093.020 1093.776 1092.127 1102.071 1095.510 1092.138 1095.955 1094.338 1097.512 1097.739 1094.112 1095.216 1093.306 1094.110 1099.678 1093.544 1094.686 1097.430 1095.957 1100.128 1094.989 1095.288 1094.414 1095.180 1105.541 1093.270 1093.082 1094.709 1094.697 1098.821 1093.517 1093.637 1096.164 1091.512 1101.529 1094.881 1090.084 1093.938 1092.772 1102.351 1094.023 1095.372 1093.500 1092.491 1093.784 1094.891 1094.675 1093.617 1095.941 1094.509 1097.132 1095.781 1098.747 1095.993 1098.526 1102.211 1097.884 1108.510 1100.738 1100.105 1101.137 1098.423 1103.152 1099.606 1097.750 1101.575 1097.325 1098.856 1097.731 1097.058 1100.473 1096.454 1096.592 1106.485 1097.734 1096.365 1097.838 1115.967 1106.925 1100.925 1107.245 1105.567 1105.180 
DATE 2015:209:19:44:55 obsn  71 az 248 el 48 freq_MHz  1421.5000 Tsys 188.600 Tant 960.333 vlsr    9.45 glat 30.177 glon 205.838 source Sun 
Fstart 1420.497 fstop 1422.503 spacing 0.009375 bw    2.400 fbw    2.000 MHz nfreq 256 nsam 1048576 npoint 214 integ   159 sigma    0.154 bsw 0
Spectrum 
1084.794 1084.630 1078.828 1077.705 1080.455 1084.904 1082.466 1081.101 1082.320 1082.676 1081.137 1083.656 1086.504 1084.264 1084.478 1081.710 1086.829 1083.038 1082.130 1086.073 1082.492 1085.571 1084.518 1083.045 1085.450 1084.653 1083.143 1085.154 1083.357 1082.056 1083.205 1082.922 1089.513 1082.725 1082.728 1083.566 1081.283 1085.331 1094.792 1081.165 1086.842 1080.545 1087.111 1080.708 1080.578 1083.625 1081.174 1082.219 1080.816 1080.625 1081.877 1082.309 1080.972 1087.573 1082.376 1083.173 1084.452 1088.139 1085.420 1083.120 1084.093 1082.078 1082.778 1088.235 1085.375 1088.309 1103.613 1089.984 1086.862 1089.917 1084.721 1084.746 1083.517 1088.869 1084.786 1084.657 1084.871 1084.927 1091.496 1085.781 1090.788 1088.888 1086.361 1098.203 1084.903 1090.905 1091.409 1086.405 1095.690 1087.435 1086.360 1088.345 1086.115 1092.074 1091.339 1085.889 1089.656 1086.878 1086.617 1087.059 1086.237 1090.739 1090.840 1086.489 1087.218 1087.621 1091.747 1087.035 1086.365 1095.426 1087.942 1089.111 1090.457 1088.026 1089.371 1088.766 1088.382 1089.328 1094.542 1092.933 1088.004 1090.038 1094.920 1092.743 1099.067 1092.493 1090.090 1091.795 1091.999 1096.559 1093.376 1093.858 1094.522 1092.970 1102.703 1096.120 1092.993 1096.806 1095.034 1098.356 1098.558 1094.832 1096.002 1093.964 1094.885 1100.273 1094.248 1095.615 1098.349 1096.734 1100.953 1095.838 1096.170 1095.324 1096.032 1106.236 1094.092 1093.596 1095.441 1095.805 1099.593 1094.438 1094.268 1096.954 1092.267 1102.468 1095.656 1090.756 1094.650 1093.556 1102.912 1094.853 1096.215 1094.048 1093.218 1094.596 1095.601 1095.506 1094.364 1096.650 1095.300 1097.920 1096.459 1099.553 1096.854 1099.292 1102.879 1098.639 1109.302 1101.405 1100.923 1102.140 1099.014 1103.613 1100.238 1098.460 1102.036 1097.965 1099.493 1098.730 1097.920 1101.205 1097.181 1097.441 1107.306 1098.525 1097.182 1098.645 1116.610 1107.817 1101.695 1107.963 1106.210 1106.051 
DATE 2015:209:19:45:08 obsn  72 az 248 el 48 freq_MHz  1421.5000 Tsys 188.600 Tant 967.757 vlsr    9.45 glat 30.177 glon 205.838 source Sun 
Fstart 1420.497 fstop 1422.503 spacing 0.009375 bw    2.400 fbw    2.000 MHz nfreq 256 nsam 1048576 npoint 214 integ   162 sigma    0.153 bsw 0
Spectrum 
1085.651 1085.345 1079.791 1078.510 1081.192 1085.841 1083.552 1082.118 1083.497 1083.519 1082.057 1084.398 1087.378 1085.032 1085.252 1082.584 1087.647 1083.751 1082.907 1086.773 1083.079 1086.367 1085.491 1083.689 1086.401 1085.530 1084.004 1086.090 1084.026 1082.948 1084.113 1083.684 1090.311 1083.735 1083.691 1084.286 1082.027 1086.061 1095.590 1081.849 1087.751 1081.510 1087.997 1081.538 1081.487 1084.611 1081.997 1083.217 1081.632 1081.688 1082.816 1083.428 1081.868 1088.422 1083.219 1084.019 1085.355 1088.949 1086.396 1084.149 1085.034 1083.035 1083.676 1089.154 1086.125 1089.198 1104.545 1090.931 1087.884 1090.949 1085.433 1085.672 1084.395 1089.683 1085.566 1085.519 1085.820 1085.776 1092.359 1086.641 1091.485 1089.602 1087.066 1099.060 1085.643 1091.746 1092.167 1087.286 1096.378 1088.394 1087.375 1089.120 1086.804 1092.944 1092.217 1086.803 1090.604 1087.635 1087.542 1088.296 1087.160 1091.753 1091.663 1087.392 1088.039 1088.547 1092.486 1087.957 1087.319 1096.297 1088.578 1090.013 1091.311 1088.953 1090.313 1089.609 1089.246 1090.041 1095.233 1093.831 1088.869 1090.743 1095.642 1093.583 1100.090 1093.206 1090.776 1092.726 1092.917 1097.373 1094.378 1094.655 1095.274 1093.632 1103.611 1096.977 1093.728 1097.602 1096.050 1099.275 1099.436 1095.864 1096.830 1094.879 1095.632 1101.061 1095.197 1096.614 1099.155 1097.284 1101.883 1096.722 1096.916 1096.239 1096.947 1107.186 1094.903 1094.254 1096.206 1096.547 1100.351 1095.141 1095.129 1097.777 1093.274 1103.259 1096.610 1091.634 1095.387 1094.333 1103.837 1095.609 1096.990 1094.905 1094.112 1095.390 1096.486 1096.325 1095.374 1097.367 1096.223 1098.699 1097.304 1100.331 1097.723 1100.081 1103.712 1099.311 1110.315 1102.184 1101.784 1103.125 1099.895 1104.384 1101.022 1099.149 1102.748 1098.675 1100.363 1099.696 1098.617 1102.036 1098.164 1098.256 1108.149 1099.365 1097.956 1099.545 1117.325 1108.593 1102.517 1108.760 1106.926 1107.051 
DATE 2015:209:19:45:22 obsn  73 az 248 el 48 freq_MHz  1421.5000 Tsys 188.600 Tant 964.194 vlsr    9.45 glat 30.177 glon 205.839 source Sun 
Fstart 1420.497 fstop 1422.503 spacing 0.009375 bw    2.400 fbw    2.000 MHz nfreq 256 nsam 1048576 npoint 214 integ   164 sigma    0.152 bsw 0
Spectrum 
1086.426 1086.135 1080.646 1079.338 1082.146 1086.526 1084.285 1082.945 1084.218 1084.318 1083.013 1085.347 1088.283 1085.635 1085.937 1083.541 1088.574 1084.452 1083.614 1087.756 1083.867 1087.206 1086.262 1084.486 1087.021 1086.374 1084.924 1087.083 1084.985 1083.880 1084.864 1084.538 1091.065 1084.910 1084.649 1084.955 1082.993 1086.710 1096.471 1082.533 1088.569 1082.289 1088.864 1082.345 1082.209 1085.432 1082.915 1084.055 1082.437 1082.495 1083.770 1084.293 1082.727 1089.184 1084.135 1084.821 1086.206 1090.028 1087.188 1084.917 1085.918 1084.055 1084.643 1090.128 1087.096 1090.029 1105.092 1091.638 1088.625 1091.769 1086.208 1086.454 1085.115 1090.497 1086.113 1086.300 1086.537 1086.542 1093.016 1087.454 1092.383 1090.380 1087.920 1099.696 1086.552 1092.396 1092.973 1087.856 1097.365 1089.086 1088.056 1089.876 1087.604 1093.725 1093.163 1087.491 1091.289 1088.602 1088.365 1089.338 1088.116 1092.626 1092.340 1088.074 1088.706 1089.490 1093.253 1088.846 1088.077 1097.126 1089.351 1090.984 1092.188 1089.873 1091.173 1090.396 1090.076 1090.797 1096.005 1094.628 1089.684 1091.503 1096.537 1094.449 1101.149 1093.875 1091.491 1093.588 1093.644 1098.094 1095.159 1095.336 1095.970 1094.345 1104.420 1097.694 1094.658 1098.523 1096.876 1099.958 1100.300 1096.745 1097.593 1095.641 1096.422 1102.008 1095.886 1097.319 1099.848 1098.126 1102.694 1097.912 1097.726 1097.193 1097.774 1108.047 1095.806 1094.838 1097.015 1097.565 1101.162 1095.947 1095.706 1098.607 1094.096 1104.039 1097.319 1092.434 1096.202 1095.207 1104.570 1096.407 1097.729 1095.953 1094.989 1096.329 1097.512 1097.134 1096.101 1098.109 1096.959 1099.415 1098.228 1101.200 1098.429 1100.821 1104.608 1100.098 1111.092 1103.106 1102.756 1103.969 1100.642 1105.236 1101.742 1100.001 1103.761 1099.649 1101.009 1100.457 1099.469 1102.944 1099.058 1099.101 1108.906 1099.922 1098.834 1100.401 1118.199 1109.414 1103.243 1109.572 1107.741 1107.619 
DATE 2015:209:19:45:35 obsn  74 az 248 el 48 freq_MHz  1421.5000 Tsys 188.600 Tant 965.764 vlsr    9.45 glat 30.177 glon 205.839 source Sun 
Fstart 1420.497 fstop 1422.503 spacing 0.009375 bw    2.400 fbw    2.000 MHz nfreq 256 nsam 1048576 npoint 214 integ   166 sigma    0.151 bsw 0
Spectrum 
1087.536 1086.943 1081.535 1080.156 1083.100 1087.338 1085.167 1083.853 1085.037 1085.224 1083.883 1086.071 1089.115 1086.620 1087.054 1084.417 1089.384 1085.443 1084.505 1088.866 1084.834 1088.145 1087.180 1085.380 1087.918 1087.318 1085.837 1087.941 1085.633 1084.880 1085.734 1085.358 1091.869 1085.658 1085.498 1085.794 1084.086 1087.700 1097.520 1083.699 1089.476 1082.999 1089.955 1083.305 1083.078 1086.389 1083.777 1084.899 1083.249 1083.444 1084.663 1085.277 1083.708 1090.137 1084.845 1085.586 1087.082 1090.706 1087.999 1085.881 1086.762 1084.934 1085.432 1090.897 1087.806 1090.642 1106.108 1092.580 1089.652 1092.695 1087.106 1087.284 1086.171 1091.466 1087.176 1087.131 1087.369 1087.431 1093.733 1088.402 1093.258 1091.135 1088.642 1100.592 1087.399 1093.100 1093.849 1088.790 1098.154 1089.913 1088.915 1090.730 1088.480 1094.635 1094.166 1088.438 1092.224 1089.469 1089.209 1090.341 1088.928 1093.518 1093.142 1088.885 1089.625 1090.619 1094.144 1089.652 1088.995 1097.954 1090.171 1091.824 1093.079 1090.730 1091.987 1091.269 1090.910 1091.689 1096.870 1095.592 1090.665 1092.403 1097.358 1095.289 1101.970 1094.589 1092.437 1094.539 1094.559 1098.861 1096.167 1096.102 1097.009 1095.289 1105.254 1098.552 1095.754 1099.466 1097.772 1100.777 1101.228 1097.759 1098.645 1096.504 1097.324 1102.862 1096.682 1098.154 1100.684 1098.857 1103.539 1098.644 1098.632 1097.913 1098.607 1108.962 1096.764 1095.768 1098.032 1098.441 1102.025 1096.787 1096.527 1099.358 1094.809 1104.833 1098.274 1093.369 1097.195 1096.059 1105.331 1097.262 1098.487 1096.843 1095.644 1097.150 1098.314 1097.874 1096.964 1098.795 1097.842 1100.089 1099.000 1102.016 1099.208 1101.797 1105.489 1101.105 1111.988 1104.021 1103.634 1104.648 1101.430 1105.974 1102.524 1100.842 1104.711 1100.281 1101.864 1101.342 1100.157 1103.779 1099.671 1099.801 1109.822 1100.752 1099.548 1101.286 1118.913 1110.302 1104.047 1110.397 1108.696 1108.468 
DATE 2015:209:19:45:48 obsn  75 az 248 el 48 freq_MHz  1421.5000 Tsys 188.600 Tant 981.103 vlsr    9.45 glat 30.177 glon 205.839 source Sun 
Fstart 1420.497 fstop 1422.503 spacing 0.009375 bw    2.400 fbw    2.000 MHz nfreq 256 nsam 1048576 npoint 214 integ   168 sigma    0.150 bsw 0
Spectrum 
1088.262 1087.888 1082.230 1081.024 1083.608 1088.112 1085.911 1084.586 1085.816 1086.048 1084.626 1087.138 1090.081 1087.425 1088.010 1085.296 1090.288 1086.360 1085.377 1089.821 1085.689 1088.936 1087.902 1086.290 1088.625 1088.214 1086.740 1088.848 1086.479 1085.776 1086.685 1086.386 1092.725 1086.533 1086.393 1086.520 1085.095 1088.600 1098.418 1084.588 1090.211 1083.959 1090.665 1084.102 1083.984 1087.213 1084.627 1085.571 1084.075 1084.485 1085.430 1086.170 1084.518 1091.019 1085.899 1086.404 1087.938 1091.486 1088.929 1087.086 1087.634 1085.826 1086.311 1091.858 1088.759 1091.431 1107.178 1093.417 1090.486 1093.732 1087.961 1088.204 1087.006 1092.511 1088.096 1088.046 1088.172 1088.504 1094.349 1089.254 1094.003 1091.922 1089.376 1101.301 1088.306 1093.936 1094.690 1089.859 1099.060 1090.699 1089.505 1091.479 1089.352 1095.583 1094.978 1089.302 1092.835 1090.221 1090.081 1091.299 1089.914 1094.350 1094.036 1089.692 1090.362 1091.316 1094.964 1090.550 1089.778 1098.800 1090.924 1092.589 1093.959 1091.674 1092.713 1092.186 1091.648 1092.456 1097.682 1096.572 1091.666 1093.304 1098.330 1096.082 1102.530 1095.229 1093.177 1095.523 1095.496 1099.704 1097.060 1096.967 1097.986 1096.237 1106.114 1099.369 1096.776 1100.307 1098.582 1101.740 1102.192 1098.656 1099.491 1097.380 1097.967 1103.594 1097.473 1099.073 1101.620 1099.589 1104.364 1099.480 1099.626 1098.758 1099.410 1109.776 1097.641 1096.592 1098.758 1099.372 1102.963 1097.644 1097.521 1100.078 1095.752 1105.519 1099.364 1094.334 1098.093 1096.957 1106.160 1097.884 1099.421 1097.771 1096.555 1097.902 1099.055 1098.529 1097.690 1099.629 1098.700 1100.789 1099.976 1102.751 1100.190 1102.701 1106.315 1102.062 1112.954 1105.033 1104.220 1105.350 1102.202 1106.806 1103.449 1101.653 1105.699 1101.150 1102.614 1102.214 1101.011 1104.624 1100.615 1100.621 1110.590 1101.612 1100.509 1102.148 1119.764 1111.080 1104.889 1111.231 1109.499 1109.416 
DATE 2015:209:19:46:01 obsn  76 az 248 el 48 freq_MHz  1421.5000 Tsys 188.600 Tant 979.273 vlsr    9.45 glat 30.177 glon 205.839 source Sun 
Fstart 1420.497 fstop 1422.503 spacing 0.009375 bw    2.400 fbw    2.000 MHz nfreq 256 nsam 1048576 npoint 214 integ   170 sigma    0.149 bsw 0
Spectrum 
1089.225 1089.018 1083.185 1082.162 1084.689 1089.178 1086.983 1085.570 1086.743 1087.008 1085.586 1088.091 1091.185 1088.517 1089.074 1086.495 1091.272 1087.451 1086.412 1090.782 1086.788 1090.049 1088.705 1087.330 1089.623 1089.172 1087.646 1089.798 1087.498 1087.000 1087.762 1087.283 1093.799 1087.449 1087.193 1087.483 1086.014 1089.630 1099.447 1085.437 1091.199 1084.943 1091.670 1085.049 1084.813 1087.993 1085.446 1086.646 1085.095 1085.509 1086.654 1087.118 1085.628 1091.980 1087.036 1087.371 1088.745 1092.383 1089.739 1087.911 1088.460 1086.846 1087.173 1092.938 1089.788 1092.542 1108.245 1094.445 1091.427 1094.673 1088.983 1089.141 1088.121 1093.657 1089.093 1089.260 1089.099 1089.464 1095.202 1090.171 1094.996 1093.026 1090.324 1102.311 1089.156 1094.867 1095.712 1091.108 1100.037 1091.594 1090.583 1092.518 1090.153 1096.529 1095.990 1090.114 1093.817 1091.272 1091.023 1092.293 1091.016 1095.248 1095.047 1090.809 1091.266 1092.143 1095.968 1091.777 1090.829 1099.863 1091.930 1093.636 1094.927 1092.682 1093.693 1093.166 1092.732 1093.469 1098.538 1097.353 1092.528 1094.278 1099.206 1096.916 1103.472 1096.181 1094.320 1096.439 1096.329 1100.724 1098.047 1098.135 1098.931 1097.286 1107.062 1100.390 1097.775 1101.252 1099.656 1102.803 1103.035 1099.719 1100.338 1098.301 1098.860 1104.605 1098.553 1100.163 1102.592 1100.509 1105.268 1100.498 1100.628 1099.528 1100.401 1110.589 1098.646 1097.491 1099.744 1100.352 1103.747 1098.630 1098.324 1100.967 1096.723 1106.347 1100.219 1095.308 1099.080 1098.034 1107.085 1098.915 1100.297 1098.703 1097.557 1098.878 1100.037 1099.621 1098.540 1100.516 1099.510 1101.713 1100.901 1103.422 1101.181 1103.518 1107.393 1102.991 1113.984 1105.968 1105.218 1106.346 1103.335 1107.943 1104.543 1102.738 1106.698 1102.112 1103.682 1103.246 1101.959 1105.549 1101.594 1101.735 1111.464 1102.512 1101.466 1103.185 1120.621 1111.965 1105.872 1112.099 1110.598 1110.455 
DATE 2015:209:19:46:15 obsn  77 az 248 el 48 freq_MHz  1421.5000 Tsys 188.600 Tant 994.362 vlsr    9.45 glat 30.177 glon 205.839 source Sun 
Fstart 1420.497 fstop 1422.503 spacing 0.009375 bw    2.400 fbw    2.000 MHz nfreq 256 nsam 1048576 npoint 214 integ   173 sigma    0.148 bsw 0
Spectrum 
1090.179 1089.904 1084.132 1083.174 1085.496 1090.151 1087.989 1086.462 1087.737 1087.729 1086.366 1088.911 1092.009 1089.335 1089.999 1087.389 1092.290 1088.221 1087.298 1091.605 1087.594 1090.865 1089.685 1088.264 1090.573 1090.006 1088.625 1090.791 1088.314 1087.976 1088.605 1088.367 1094.875 1088.356 1088.220 1088.566 1087.036 1090.695 1100.553 1086.347 1092.257 1085.932 1092.520 1086.000 1085.759 1088.618 1086.410 1087.460 1086.131 1086.379 1087.707 1088.081 1086.596 1092.885 1088.079 1088.339 1089.818 1093.323 1091.032 1088.959 1089.481 1087.798 1088.098 1093.790 1090.713 1093.258 1109.391 1095.485 1092.284 1095.418 1089.718 1090.232 1089.076 1094.475 1089.864 1090.162 1089.965 1090.261 1096.101 1091.234 1095.800 1094.025 1091.292 1103.255 1089.797 1095.800 1096.550 1092.153 1100.664 1092.483 1091.463 1093.432 1091.071 1097.470 1096.935 1090.784 1094.889 1092.181 1091.991 1093.161 1091.815 1096.237 1096.116 1091.838 1092.176 1092.984 1097.030 1092.754 1091.784 1100.869 1092.839 1094.613 1095.842 1093.503 1094.494 1094.000 1093.656 1094.315 1099.273 1098.319 1093.333 1095.158 1100.032 1097.938 1104.247 1096.930 1095.239 1097.419 1097.432 1101.686 1099.016 1098.974 1099.862 1098.275 1107.811 1101.171 1098.680 1102.151 1100.708 1103.657 1103.844 1100.563 1101.068 1099.153 1099.752 1105.553 1099.614 1101.040 1103.760 1101.464 1106.038 1101.272 1101.522 1100.481 1101.279 1111.572 1099.594 1098.337 1100.780 1101.271 1104.855 1099.436 1099.330 1101.939 1097.627 1107.214 1101.065 1096.123 1099.921 1098.973 1107.882 1099.834 1101.349 1099.601 1098.635 1099.769 1100.953 1100.634 1099.574 1101.576 1100.482 1102.575 1101.878 1104.484 1102.010 1104.312 1108.282 1103.758 1114.762 1106.808 1106.123 1107.165 1104.250 1108.828 1105.358 1103.701 1107.548 1102.902 1104.559 1104.122 1102.789 1106.560 1102.446 1102.552 1112.356 1103.510 1102.340 1104.166 1121.547 1112.965 1106.904 1113.049 1111.489 1111.512 
DATE 2015:209:19:46:28 obsn  78 az 248 el 48 freq_MHz  1421.5000 Tsys 188.600 Tant 981.413 vlsr    9.45 glat 30.178 glon 205.839 source Sun 
Fstart 1420.497 fstop 1422.503 spacing 0.009375 bw    2.400 fbw    2.000 MHz nfreq 256 nsam 1048576 npoint 214 integ   175 sigma    0.147 bsw 0
Spectrum 
1091.134 1090.974 1085.176 1084.017 1086.310 1091.093 1088.916 1087.409 1088.667 1088.603 1087.319 1089.925 1093.127 1090.315 1090.977 1088.357 1093.321 1089.205 1088.131 1092.575 1088.545 1091.794 1090.537 1089.262 1091.475 1090.924 1089.514 1091.774 1089.506 1089.041 1089.526 1089.315 1095.887 1089.366 1089.277 1089.412 1087.858 1091.526 1101.357 1087.412 1093.271 1086.921 1093.296 1086.954 1086.679 1089.719 1087.371 1088.493 1087.149 1087.485 1088.709 1089.145 1087.571 1093.966 1088.911 1089.280 1090.869 1094.350 1092.010 1089.893 1090.431 1088.795 1089.029 1094.636 1091.918 1094.329 1110.424 1096.238 1093.220 1096.311 1090.782 1091.352 1090.144 1095.364 1090.904 1091.190 1090.956 1091.206 1097.057 1092.290 1096.610 1095.026 1092.324 1104.239 1091.015 1096.793 1097.361 1093.230 1101.757 1093.536 1092.367 1094.434 1092.229 1098.476 1097.902 1091.586 1095.695 1093.209 1092.928 1094.102 1092.779 1097.217 1096.984 1092.609 1093.168 1093.922 1097.929 1093.771 1092.736 1101.585 1093.809 1095.383 1096.733 1094.439 1095.538 1095.095 1094.657 1095.462 1100.023 1099.236 1094.185 1096.212 1101.110 1098.824 1105.080 1097.987 1096.111 1098.243 1098.310 1102.680 1100.052 1099.902 1100.862 1099.192 1108.641 1102.148 1099.643 1103.096 1101.512 1104.573 1104.617 1101.759 1102.056 1100.060 1100.581 1106.512 1100.647 1102.124 1104.647 1102.382 1106.947 1102.135 1102.586 1101.373 1102.173 1112.614 1100.461 1099.364 1101.585 1102.153 1105.870 1100.416 1100.159 1102.922 1098.715 1108.145 1101.999 1097.042 1100.843 1099.829 1108.842 1100.590 1102.242 1100.459 1099.619 1100.694 1101.674 1101.632 1100.650 1102.580 1101.439 1103.444 1102.754 1105.490 1102.712 1105.399 1109.230 1104.706 1115.659 1107.647 1107.211 1108.215 1105.237 1109.824 1106.337 1104.758 1108.557 1103.812 1105.399 1105.007 1103.768 1107.592 1103.390 1103.424 1113.063 1104.595 1103.253 1105.082 1122.485 1114.034 1107.833 1114.064 1112.654 1112.537 
DATE 2015:209:19:46:41 obsn  79 az 248 el 48 freq_MHz  1421.5000 Tsys 188.600 Tant 990.433 vlsr    9.45 glat 30.178 glon 205.839 source Sun 
Fstart 1420.497 fstop 1422.503 spacing 0.009375 bw    2.400 fbw    2.000 MHz nfreq 256 nsam 1048576 npoint 214 integ   177 sigma    0.146 bsw 0
Spectrum 
1092.199 1091.781 1086.264 1085.012 1087.337 1092.268 1089.821 1088.467 1089.513 1089.469 1088.321 1090.950 1094.171 1091.185 1091.972 1089.430 1094.190 1090.113 1089.332 1093.542 1089.547 1092.812 1091.406 1090.253 1092.457 1091.742 1090.569 1092.679 1090.475 1090.000 1090.530 1090.371 1096.750 1090.320 1090.261 1090.352 1088.728 1092.481 1102.250 1088.349 1094.255 1088.029 1094.220 1087.960 1087.846 1090.606 1088.119 1089.385 1088.116 1088.333 1089.590 1090.124 1088.426 1094.932 1089.932 1090.236 1091.772 1095.249 1092.948 1090.700 1091.297 1089.892 1089.954 1095.633 1092.813 1095.181 1111.339 1097.107 1094.283 1097.205 1091.973 1092.309 1091.177 1096.483 1091.920 1092.075 1091.990 1092.323 1098.102 1093.275 1097.614 1096.064 1093.398 1105.081 1092.064 1097.714 1098.419 1094.110 1102.859 1094.587 1093.326 1095.528 1093.291 1099.538 1098.837 1092.460 1096.575 1094.167 1093.892 1095.030 1093.880 1098.185 1097.903 1093.543 1094.033 1094.865 1098.729 1094.594 1093.516 1102.588 1094.925 1096.431 1097.781 1095.326 1096.407 1095.980 1095.456 1096.462 1100.855 1100.256 1095.139 1097.192 1102.037 1099.731 1105.966 1098.822 1097.057 1099.169 1099.224 1103.606 1101.044 1100.911 1101.789 1099.929 1109.441 1102.965 1100.445 1104.037 1102.539 1105.552 1105.523 1102.731 1102.938 1101.108 1101.552 1107.453 1101.565 1103.152 1105.457 1103.405 1108.059 1103.070 1103.512 1102.299 1103.158 1113.621 1101.268 1100.326 1102.412 1103.280 1106.890 1101.328 1101.239 1104.019 1099.607 1109.101 1102.999 1097.964 1101.701 1100.445 1109.794 1101.588 1103.393 1101.298 1100.572 1101.559 1102.615 1102.497 1101.676 1103.549 1102.554 1104.432 1103.664 1106.251 1103.789 1106.470 1110.099 1105.791 1116.623 1108.614 1108.031 1109.037 1106.214 1110.673 1107.470 1105.634 1109.397 1104.620 1106.422 1106.172 1104.885 1108.639 1104.403 1104.327 1113.985 1105.605 1104.028 1106.199 1123.514 1115.009 1108.899 1114.969 1113.663 1113.635 
DATE 2015:209:19:46:56 obsn  80 az 249 el 47 freq_MHz  1421.5000 Tsys 188.600 Tant 843.341 vlsr    9.45 glat 30.178 glon 205.839 source Sun 
Fstart 1420.497 fstop 1422.503 spacing 0.009375 bw    2.400 fbw    2.000 MHz nfreq 256 nsam 1048576 npoint 214 integ   179 sigma    0.146 bsw 0
Spectrum 
1091.487 1091.053 1085.507 1084.411 1086.714 1091.634 1089.148 1087.906 1088.831 1088.731 1087.642 1090.253 1093.568 1090.607 1091.222 1088.708 1093.583 1089.334 1088.582 1092.869 1088.815 1092.080 1090.602 1089.469 1091.823 1091.184 1089.796 1092.060 1089.862 1089.302 1089.871 1089.767 1096.140 1089.698 1089.396 1089.652 1087.892 1091.955 1101.476 1087.617 1093.748 1087.445 1093.603 1087.471 1087.180 1089.845 1087.416 1088.589 1087.381 1087.671 1088.969 1089.415 1087.620 1094.291 1089.274 1089.549 1091.177 1094.511 1092.244 1089.972 1090.442 1089.354 1089.243 1094.881 1092.064 1094.435 1110.550 1096.522 1093.560 1096.419 1091.294 1091.633 1090.535 1095.795 1091.177 1091.381 1091.360 1091.589 1097.453 1092.628 1096.866 1095.254 1092.714 1104.293 1091.324 1097.060 1097.696 1093.367 1102.270 1093.868 1092.514 1094.869 1092.460 1098.817 1098.142 1091.814 1095.870 1093.386 1093.282 1094.296 1093.097 1097.570 1097.153 1092.822 1093.444 1094.194 1097.901 1094.006 1092.945 1101.922 1094.088 1095.685 1097.024 1094.732 1095.741 1095.383 1094.799 1095.821 1100.083 1099.549 1094.567 1096.685 1101.362 1098.949 1105.223 1098.182 1096.385 1098.651 1098.445 1102.822 1100.286 1100.218 1101.320 1099.250 1108.761 1102.187 1099.839 1103.425 1101.823 1104.825 1104.804 1102.000 1102.284 1100.245 1101.030 1106.770 1100.786 1102.425 1104.786 1102.690 1107.447 1102.293 1102.845 1101.419 1102.387 1112.823 1100.584 1099.641 1101.599 1102.570 1106.243 1100.589 1100.399 1103.263 1098.872 1108.290 1102.223 1097.096 1101.046 1099.764 1109.094 1100.933 1102.828 1100.626 1099.855 1100.915 1101.911 1101.894 1100.864 1102.874 1101.784 1103.649 1102.906 1105.509 1103.115 1105.815 1109.384 1104.877 1115.838 1107.951 1107.286 1108.270 1105.578 1109.934 1106.923 1104.907 1108.691 1103.917 1105.672 1105.591 1104.161 1107.927 1103.573 1103.570 1113.231 1104.854 1103.256 1105.547 1122.851 1114.292 1108.208 1114.264 1112.872 1112.801 
