DATE 2015:203:19:23:47 obsn   0 az 244 el 52 freq_MHz  1421.5000 Tsys 182.760 Tant 863.732 vlsr   10.18 glat 25.424 glon 202.187 source Sun 
Fstart 1420.497 fstop 1422.503 spacing 0.009375 bw    2.400 fbw    2.000 MHz nfreq 256 nsam 1048576 npoint 214 integ     4 sigma    0.903 bsw 0
Spectrum 
 681.940  682.324  691.344  690.642  689.632  694.297  687.793  687.954  686.394  689.974  694.353  694.190  694.701  687.565  692.585  692.576  696.348  692.447  687.607  693.766  701.818  696.286  694.279  689.518  693.064  691.491  687.806  693.198  698.660  691.686  688.514  694.604  686.750  689.427  692.256  690.510  685.960  687.666  721.671  689.427  689.288  684.344  691.877  691.614  687.469  694.815  694.898  694.508  691.114  692.373  690.534  698.721  689.137  696.523  701.314  698.179  687.997  697.011  701.829  689.596  691.008  688.500  694.835  699.451  685.561  694.458  693.408  681.117  686.176  692.568  687.867  693.833  685.000  695.460  689.915  691.376  694.632  692.520  693.024  692.605  695.979  696.592  692.933  700.568  696.200  692.195  698.032  692.810  704.375  689.374  687.135  690.368  692.477  693.179  697.164  690.961  694.212  695.809  694.222  692.685  692.379  691.674  696.097  690.988  684.579  686.747  692.061  688.001  689.754  698.692  695.953  691.836  692.004  703.207  693.481  687.941  696.452  689.297  693.397  698.348  690.467  698.405  697.531  693.770  699.818  689.193  693.081  694.667  697.010  698.389  699.111  693.566  690.145  703.598  690.697  700.378  696.434  698.309  696.970  697.024  701.008  694.899  690.248  692.264  695.671  699.543  692.092  686.629  694.286  697.012  695.050  700.448  691.310  689.786  693.018  705.857  695.537  695.608  697.027  693.259  703.653  692.412  702.985  700.278  695.070  705.886  698.251  696.367  692.717  697.333  708.961  706.677  694.198  689.156  692.000  697.810  696.289  695.440  697.075  687.641  692.131  697.011  695.272  695.963  697.349  695.252  705.065  697.519  697.148  695.031  702.195  698.932  701.668  695.128  700.293  687.972  699.406  694.386  698.010  697.258  694.247  695.104  695.850  698.869  706.497  698.668  698.377  698.832  700.475  700.214  699.118  691.644  698.203  692.151 
DATE 2015:203:19:24:00 obsn   1 az 244 el 52 freq_MHz  1421.5000 Tsys 182.760 Tant 860.365 vlsr   10.18 glat 25.424 glon 202.187 source Sun 
Fstart 1420.497 fstop 1422.503 spacing 0.009375 bw    2.400 fbw    2.000 MHz nfreq 256 nsam 1048576 npoint 214 integ     7 sigma    0.737 bsw 0
Spectrum 
 797.680  802.636  805.517  804.830  802.686  808.393  806.430  801.284  801.726  808.450  805.854  806.249  813.695  804.762  809.619  807.100  816.328  809.170  803.225  810.420  813.001  811.793  809.650  810.900  809.839  808.011  807.618  808.107  808.601  807.053  804.664  807.536  812.551  809.015  804.266  807.888  802.389  801.574  833.395  803.140  806.677  796.947  809.621  805.402  804.487  812.142  810.365  813.520  803.665  806.926  807.741  811.812  804.353  811.336  816.198  812.445  805.163  812.949  815.494  803.927  806.164  801.811  811.284  815.134  804.244  809.564  812.922  796.992  807.451  806.637  805.395  808.348  802.538  815.040  806.028  810.209  806.266  808.497  811.171  804.362  813.557  814.987  807.134  818.781  809.823  804.218  813.614  808.841  822.499  807.699  801.770  809.544  806.629  808.019  810.120  803.282  806.479  811.537  811.409  810.642  809.461  806.286  813.092  804.231  804.915  803.720  809.720  806.898  807.437  819.873  809.734  810.472  808.423  818.189  810.465  806.397  812.553  807.251  809.169  812.511  806.894  812.911  815.199  808.902  814.380  806.612  810.016  813.194  818.648  814.579  811.907  808.731  806.774  815.238  807.822  818.238  810.099  816.203  814.874  812.942  824.745  807.653  809.819  811.762  813.453  817.456  812.787  807.388  814.020  816.311  816.355  814.874  810.943  811.959  806.735  825.469  816.594  814.923  814.427  810.968  822.058  810.124  818.427  821.209  816.625  829.722  814.391  812.974  813.006  816.736  832.145  815.885  814.615  812.285  812.366  811.990  813.706  809.456  810.997  808.100  810.137  809.733  809.428  816.289  811.299  814.099  827.546  813.976  820.078  812.161  821.283  821.372  819.194  815.846  817.385  808.368  816.129  815.223  813.130  816.433  809.710  818.625  813.882  815.893  824.339  815.094  816.722  818.573  820.925  815.562  816.262  814.937  814.703  810.814 
DATE 2015:203:19:24:13 obsn   2 az 244 el 52 freq_MHz  1421.5000 Tsys 182.760 Tant 879.966 vlsr   10.18 glat 25.424 glon 202.187 source Sun 
Fstart 1420.497 fstop 1422.503 spacing 0.009375 bw    2.400 fbw    2.000 MHz nfreq 256 nsam 1048576 npoint 214 integ     9 sigma    0.639 bsw 0
Spectrum 
 856.457  861.950  862.479  867.265  859.787  870.462  864.543  862.333  861.695  865.999  867.477  867.530  874.083  863.137  869.111  867.021  876.597  868.868  868.315  873.488  869.801  876.973  877.190  871.053  871.593  864.782  867.529  868.917  866.956  868.352  864.809  868.684  873.084  867.910  864.012  864.409  862.166  861.482  891.894  863.645  872.042  858.373  874.702  865.685  865.943  873.329  867.818  871.834  866.194  865.718  870.997  872.414  864.096  869.268  877.535  872.610  865.443  871.761  874.929  867.455  870.087  861.834  871.326  879.068  866.907  871.150  876.691  860.673  871.744  868.870  868.079  872.359  861.838  873.111  870.205  869.753  869.201  868.128  873.129  863.867  871.997  876.834  865.084  881.056  869.406  863.758  874.148  872.948  888.222  870.075  864.423  868.986  870.027  869.254  874.556  866.997  870.450  872.182  870.669  874.394  871.327  868.020  872.840  866.499  868.748  867.164  872.888  865.350  869.294  882.606  867.782  870.626  868.981  878.135  871.390  866.352  873.616  867.000  872.742  877.076  867.834  873.295  875.953  870.296  878.702  865.495  869.112  871.605  879.744  874.330  870.476  868.178  872.596  874.771  872.610  881.287  871.659  876.741  873.300  872.137  884.285  871.969  873.141  871.704  873.393  880.747  875.103  871.391  877.338  875.880  876.552  873.728  875.276  873.410  866.175  887.560  880.283  873.581  875.812  869.818  884.315  871.734  882.149  880.411  877.420  894.056  873.654  875.120  876.099  878.052  891.940  877.305  875.474  872.281  874.923  873.196  876.671  870.684  875.647  869.879  872.972  869.085  874.017  880.074  874.164  874.420  890.287  879.082  881.736  872.446  882.593  882.460  883.586  877.563  880.207  870.562  878.613  874.468  875.564  875.844  872.715  880.527  878.281  876.683  885.641  875.549  879.131  880.567  880.981  877.739  877.695  874.864  879.129  869.775 
DATE 2015:203:19:24:27 obsn   3 az 244 el 52 freq_MHz  1421.5000 Tsys 182.760 Tant 879.973 vlsr   10.18 glat 25.424 glon 202.187 source Sun 
Fstart 1420.497 fstop 1422.503 spacing 0.009375 bw    2.400 fbw    2.000 MHz nfreq 256 nsam 1048576 npoint 214 integ    11 sigma    0.571 bsw 0
Spectrum 
 890.919  897.373  898.181  901.221  898.659  908.819  902.081  898.789  899.058  902.149  903.200  903.259  911.333  901.859  907.165  905.256  913.128  908.268  908.023  912.414  905.145  912.548  916.119  908.665  910.664  902.457  905.352  906.603  901.791  905.168  903.580  905.128  912.634  903.337  902.039  900.580  897.980  899.605  929.166  898.709  911.461  895.664  913.408  900.478  905.553  911.018  907.174  909.976  905.598  904.670  908.932  911.715  901.848  908.921  912.608  907.773  906.779  908.729  913.033  903.588  907.763  901.515  908.443  917.984  907.203  910.406  916.853  901.658  908.320  906.011  905.051  911.492  902.273  911.338  908.219  909.530  905.770  907.363  912.167  901.530  909.189  914.672  902.876  919.724  903.337  903.008  912.349  911.252  926.851  908.669  904.091  907.017  907.278  906.669  914.150  904.995  907.837  908.865  905.831  911.938  908.066  907.594  910.857  905.027  909.840  906.012  911.580  903.050  907.825  919.936  905.279  906.984  910.073  914.920  910.399  904.267  909.400  903.088  912.206  916.755  908.003  911.866  919.160  913.312  916.276  906.963  910.332  909.918  914.439  913.000  909.710  905.766  910.486  914.146  909.951  919.668  910.525  913.266  911.605  910.969  924.022  908.688  913.474  909.520  910.365  918.432  911.997  907.683  914.362  916.059  914.390  912.367  914.821  912.882  908.713  926.056  918.093  915.195  916.649  911.785  926.163  912.784  920.356  922.114  916.429  935.819  912.746  912.901  917.263  914.918  931.293  915.789  915.197  913.523  912.620  911.443  913.232  907.550  913.430  906.912  911.700  905.846  910.974  918.770  912.317  913.346  929.413  917.477  920.923  911.260  920.358  920.452  921.870  919.542  918.799  910.221  919.600  912.353  914.932  915.870  911.434  921.626  915.225  914.850  923.133  912.321  916.528  919.461  919.253  915.736  920.017  913.729  918.511  908.174 
DATE 2015:203:19:24:40 obsn   4 az 244 el 52 freq_MHz  1421.5000 Tsys 182.760 Tant 914.154 vlsr   10.18 glat 25.425 glon 202.187 source Sun 
Fstart 1420.497 fstop 1422.503 spacing 0.009375 bw    2.400 fbw    2.000 MHz nfreq 256 nsam 1048576 npoint 214 integ    13 sigma    0.521 bsw 0
Spectrum 
 919.713  926.370  925.651  927.816  924.936  934.195  929.201  925.596  927.089  927.493  927.704  928.381  938.592  925.894  931.810  934.168  937.384  935.086  935.842  939.571  933.572  937.818  943.344  935.322  939.048  929.825  932.711  937.045  929.426  932.042  929.302  932.799  937.641  927.786  930.406  927.404  925.195  929.102  955.734  927.320  936.863  922.349  941.874  927.785  932.619  934.670  933.270  936.964  934.223  931.440  935.764  936.310  928.128  939.923  940.611  935.932  934.361  936.825  939.624  930.753  935.359  929.787  936.212  942.885  933.967  939.151  944.564  930.665  934.672  933.322  934.937  937.274  930.167  939.100  935.446  937.725  933.402  935.136  940.325  929.986  933.102  940.378  932.241  949.513  930.132  932.650  940.435  938.594  955.213  935.712  932.951  935.511  933.174  935.611  942.303  932.032  935.232  935.585  933.564  939.792  935.228  934.006  940.022  934.248  938.099  934.514  939.263  933.175  934.574  948.315  933.856  933.299  938.233  941.201  938.799  932.201  935.996  931.387  939.488  945.539  934.926  939.522  944.742  941.187  942.923  932.335  937.532  937.847  944.231  937.733  936.709  935.272  938.965  940.803  938.850  946.071  936.901  940.059  937.506  938.758  948.902  937.313  938.446  936.658  935.680  947.394  939.847  935.385  942.815  944.548  940.488  940.260  941.150  939.157  937.771  955.596  944.171  942.313  945.244  941.629  955.072  941.413  946.533  949.330  944.209  962.553  940.082  940.584  945.336  942.687  959.221  943.231  941.341  944.508  939.035  941.236  940.957  938.091  940.237  933.884  939.826  934.238  939.520  946.914  939.540  941.135  958.330  945.368  948.476  941.834  947.826  947.606  948.745  946.493  947.429  938.171  948.702  941.063  941.886  944.514  939.842  948.101  943.549  943.746  952.237  940.791  940.526  944.284  945.814  943.174  945.899  941.856  946.406  937.645 
DATE 2015:203:19:24:53 obsn   5 az 244 el 52 freq_MHz  1421.5000 Tsys 182.760 Tant 916.785 vlsr   10.18 glat 25.425 glon 202.187 source Sun 
Fstart 1420.497 fstop 1422.503 spacing 0.009375 bw    2.400 fbw    2.000 MHz nfreq 256 nsam 1048576 npoint 214 integ    15 sigma    0.483 bsw 0
Spectrum 
 942.330  949.124  947.177  948.060  945.694  956.109  951.687  947.424  947.179  948.048  950.207  951.977  960.813  948.401  954.351  957.432  961.006  957.184  957.825  961.835  957.184  959.370  964.378  958.756  961.589  953.312  952.952  957.035  953.985  955.235  950.295  952.607  958.589  948.796  951.818  950.377  948.658  951.386  976.627  951.858  957.798  944.329  963.046  949.305  953.892  956.134  955.018  958.349  953.824  952.837  956.095  959.014  949.599  961.820  962.062  955.611  956.224  959.071  960.329  952.654  956.378  950.985  957.079  965.771  959.018  960.835  965.987  954.009  955.968  955.876  956.927  959.739  952.842  962.758  957.646  959.520  954.488  955.297  962.105  954.004  954.055  962.674  955.369  972.059  953.211  954.895  965.503  961.213  977.675  958.988  955.621  958.332  955.109  957.598  966.136  954.839  958.458  958.139  956.877  962.351  959.441  956.291  963.386  956.906  959.187  955.459  963.643  955.503  957.690  971.168  955.649  955.942  959.236  963.621  960.757  954.675  957.943  953.849  962.865  966.467  957.805  961.228  966.877  963.452  966.073  954.496  958.886  959.023  964.534  960.252  957.782  957.756  960.749  960.680  962.815  967.108  960.188  963.713  957.595  961.754  970.916  960.499  963.953  960.330  959.943  970.684  962.846  957.447  966.230  967.516  961.796  963.103  964.750  962.711  959.622  980.109  967.406  964.891  967.317  963.683  978.722  966.249  970.769  971.238  966.729  985.099  963.429  962.477  966.657  965.558  981.638  965.539  964.170  965.691  962.733  962.947  963.919  963.203  961.528  956.647  962.273  957.488  960.445  967.052  962.491  963.453  979.000  966.905  971.279  963.914  967.694  969.384  970.756  965.556  970.183  961.217  971.396  962.646  965.244  966.394  962.945  969.882  967.292  964.523  973.325  962.421  963.060  967.701  967.179  965.737  966.745  967.182  968.353  960.285 
DATE 2015:203:19:25:07 obsn   6 az 244 el 52 freq_MHz  1421.5000 Tsys 182.760 Tant 921.509 vlsr   10.18 glat 25.425 glon 202.187 source Sun 
Fstart 1420.497 fstop 1422.503 spacing 0.009375 bw    2.400 fbw    2.000 MHz nfreq 256 nsam 1048576 npoint 214 integ    17 sigma    0.452 bsw 0
Spectrum 
 959.526  965.294  963.628  965.164  962.869  972.601  968.841  964.762  964.701  965.664  966.716  968.767  979.119  967.026  972.449  975.272  978.195  974.373  975.557  980.135  974.783  976.454  980.481  974.558  977.761  971.071  970.048  974.306  970.704  972.949  968.291  968.274  975.170  966.349  968.716  968.966  967.579  968.732  992.928  968.439  975.768  961.516  981.322  966.682  970.443  973.773  971.076  974.879  971.808  969.728  971.893  976.430  967.313  979.630  978.479  972.439  973.727  975.906  979.296  970.003  973.288  968.331  974.678  984.536  976.052  978.393  983.027  971.538  972.266  972.606  974.529  976.121  970.848  978.851  974.710  976.423  973.843  972.307  980.617  971.647  970.697  980.974  972.616  988.306  970.966  973.492  981.604  977.964  994.195  976.023  973.105  977.295  973.197  975.145  982.490  971.229  975.587  975.732  975.340  979.431  975.648  974.812  980.504  973.625  976.976  972.399  981.245  972.964  973.715  989.565  975.064  972.847  975.203  981.099  979.372  973.456  973.388  971.510  981.162  984.257  975.702  980.379  985.635  978.739  982.851  971.320  975.177  975.216  982.058  978.148  974.830  975.784  978.032  977.839  980.906  984.809  977.061  980.147  975.970  980.114  988.977  978.501  982.176  979.063  975.683  988.859  980.689  975.779  984.429  984.646  981.261  982.882  981.592  980.247  978.299  996.294  984.482  982.829  983.418  981.687  996.260  982.611  987.461  989.723  984.951 1001.584  980.067  979.296  983.205  982.654 1000.319  984.167  982.588  982.788  981.370  980.255  980.695  981.410  979.036  975.873  980.188  976.349  977.277  985.423  979.547  980.633  994.870  984.181  989.875  981.833  985.195  985.589  986.508  982.611  986.828  980.224  988.026  979.862  983.337  984.553  980.399  986.438  983.127  983.307  991.977  981.544  978.922  985.164  986.459  985.775  984.476  984.909  985.018  976.603 
DATE 2015:203:19:25:22 obsn   7 az 245 el 51 freq_MHz  1421.5000 Tsys 182.760 Tant 697.093 vlsr   10.18 glat 25.425 glon 202.187 source Sun 
Fstart 1420.497 fstop 1422.503 spacing 0.009375 bw    2.400 fbw    2.000 MHz nfreq 256 nsam 1048576 npoint 214 integ    20 sigma    0.426 bsw 0
Spectrum 
 971.568  977.689  974.988  976.007  974.947  983.644  979.914  977.377  976.704  977.603  977.711  979.922  990.919  978.715  984.772  987.114  990.393  985.585  987.796  991.461  986.821  986.864  992.138  985.995  991.069  984.048  983.284  985.949  982.167  983.859  980.684  981.083  987.449  977.281  981.280  980.948  979.709  979.893 1005.201  979.383  986.451  973.292  991.218  977.671  981.033  985.355  982.032  984.734  983.966  981.301  985.128  987.114  981.105  991.464  989.473  985.305  984.748  987.959  991.588  984.134  983.697  979.038  985.263  996.066  987.716  990.545  995.137  984.624  985.134  983.851  986.318  986.714  983.882  990.290  986.877  987.503  984.181  983.816  992.533  983.435  982.301  991.970  985.323 1001.738  981.939  985.455  993.226  990.065 1005.437  989.864  984.697  988.259  986.080  986.252  993.339  983.597  986.652  987.706  989.109  991.942  987.898  987.126  991.314  984.887  989.767  983.692  993.143  986.058  985.924 1002.113  986.859  985.743  986.401  992.526  990.988  984.313  987.334  984.260  992.225  996.067  987.158  990.285  997.274  990.396  996.458  983.558  986.476  987.682  994.084  991.527  987.583  987.150  989.647  990.500  993.133  996.729  988.642  992.786  988.603  991.482 1000.544  989.176  993.564  991.505  988.106 1000.650  992.236  988.220  997.472  997.043  994.063  995.125  993.256  992.569  988.412 1008.296  997.780  994.584  995.025  993.125 1007.750  994.366  998.540 1001.209  998.043 1013.403  993.131  992.652  995.777  994.663 1010.774  995.571  994.959  994.647  993.583  992.439  993.057  993.437  990.245  988.968  991.886  988.333  989.111  997.096  991.842  994.233 1006.078  994.719 1000.522  994.787  998.097  996.825  997.279  995.160  997.820  991.095 1000.968  992.696  994.971  995.324  993.913  998.140  995.733  994.003 1004.760  993.092  990.147  996.382  999.019  997.858  997.103  997.404  996.595  988.565 
DATE 2015:203:19:25:35 obsn   8 az 245 el 51 freq_MHz  1421.5000 Tsys 182.760 Tant 702.954 vlsr   10.18 glat 25.425 glon 202.188 source Sun 
Fstart 1420.497 fstop 1422.503 spacing 0.009375 bw    2.400 fbw    2.000 MHz nfreq 256 nsam 1048576 npoint 214 integ    22 sigma    0.404 bsw 0
Spectrum 
 960.972  966.160  964.132  965.338  964.695  972.653  967.886  966.364  965.543  967.448  966.928  969.162  979.619  967.866  973.698  975.805  979.362  974.974  977.214  979.720  975.560  976.096  980.557  974.714  978.808  972.179  972.199  975.010  969.685  972.957  969.156  969.973  975.928  965.633  970.167  969.592  969.957  969.807  993.344  969.354  977.083  963.358  979.918  967.634  969.792  974.465  970.712  972.495  972.692  970.176  973.922  976.364  971.055  980.300  978.000  974.541  973.214  976.988  979.232  971.696  972.446  968.938  974.863  984.684  976.054  978.584  984.342  974.242  973.102  972.377  974.687  975.183  972.720  979.347  976.336  975.099  974.112  971.889  980.547  971.643  971.078  979.725  974.459  990.087  970.931  975.376  980.860  979.430  992.753  977.540  973.891  976.508  974.587  976.139  982.190  973.839  975.026  976.791  977.822  980.107  975.692  976.058  980.325  973.655  978.295  973.227  983.376  975.730  974.700  992.073  975.945  974.311  975.028  981.793  979.351  972.885  975.473  973.292  981.124  984.337  975.577  979.638  985.621  979.226  985.953  972.759  975.531  976.347  981.439  979.961  977.278  975.949  978.886  979.670  982.756  986.140  978.108  981.341  976.796  980.655  989.957  978.246  981.365  980.384  976.837  989.915  981.079  977.006  985.324  985.289  982.774  984.146  982.463  981.258  978.257  998.263  986.903  985.111  982.950  983.666  997.346  983.619  987.529  989.705  986.560 1001.727  982.671  982.130  984.518  984.035  999.739  983.803  984.666  985.298  981.836  982.487  981.248  981.845  979.518  977.500  981.768  977.272  977.611  987.542  982.184  982.588  993.595  983.453  989.645  983.241  986.748  985.428  985.880  984.125  987.375  980.552  989.518  981.236  984.096  984.606  982.734  986.847  983.696  982.165  993.356  982.176  980.008  984.534  988.084  987.614  985.600  986.458  986.272  977.167 
DATE 2015:203:19:25:49 obsn   9 az 245 el 51 freq_MHz  1421.5000 Tsys 182.760 Tant 727.224 vlsr   10.18 glat 25.425 glon 202.188 source Sun 
Fstart 1420.497 fstop 1422.503 spacing 0.009375 bw    2.400 fbw    2.000 MHz nfreq 256 nsam 1048576 npoint 214 integ    24 sigma    0.385 bsw 0
Spectrum 
 953.213  958.787  955.606  957.652  956.890  965.405  960.733  959.783  957.963  959.625  960.289  961.038  972.379  960.580  965.682  967.762  970.032  966.870  969.217  971.801  968.066  968.885  973.612  966.568  970.816  963.735  963.765  966.608  962.066  965.055  961.006  962.038  968.442  959.313  960.599  960.768  961.649  961.102  985.548  960.971  969.235  956.121  972.527  959.381  962.283  966.622  963.132  964.574  964.744  962.093  966.676  969.043  963.649  972.700  969.459  966.706  967.176  969.392  971.749  963.891  964.626  961.583  966.487  977.271  968.932  970.877  977.098  966.762  965.732  964.812  966.764  966.828  964.110  971.010  968.618  967.743  965.375  963.909  974.041  965.121  963.180  972.320  965.944  982.532  963.487  966.954  972.895  971.036  984.612  969.052  966.586  968.593  966.089  968.000  974.399  966.542  967.009  969.091  968.973  971.503  968.122  967.552  971.187  965.885  970.665  965.504  975.783  967.376  967.191  983.938  968.056  966.218  966.234  973.329  970.711  966.147  968.023  965.775  973.864  976.806  967.737  971.407  977.521  970.940  979.271  964.963  967.621  969.637  972.630  972.334  969.705  968.535  971.283  970.646  973.696  978.477  970.365  973.327  968.732  972.603  983.317  970.662  974.381  972.458  969.556  982.007  974.066  969.891  976.518  977.416  974.240  976.053  974.646  973.823  970.869  990.340  978.755  976.856  975.763  976.152  988.913  975.465  980.020  981.801  978.163  992.628  974.879  975.440  976.300  976.161  990.791  975.575  976.711  976.093  972.722  974.643  973.229  974.781  971.689  970.394  973.995  970.123  970.242  979.909  974.924  975.571  985.357  975.203  981.397  976.413  979.051  978.006  977.761  976.501  980.400  973.715  981.757  973.683  976.065  977.395  974.232  978.305  976.448  974.133  985.239  973.577  972.830  975.886  980.072  980.000  977.149  979.052  977.877  969.515 
DATE 2015:203:19:26:02 obsn  10 az 245 el 51 freq_MHz  1421.5000 Tsys 182.760 Tant 738.241 vlsr   10.18 glat 25.425 glon 202.188 source Sun 
Fstart 1420.497 fstop 1422.503 spacing 0.009375 bw    2.400 fbw    2.000 MHz nfreq 256 nsam 1048576 npoint 214 integ    26 sigma    0.369 bsw 0
Spectrum 
 948.112  954.185  950.290  952.432  952.827  959.604  955.516  954.595  952.841  954.944  955.438  956.270  967.767  956.857  961.224  962.540  965.237  962.721  963.843  966.805  963.474  964.532  969.755  961.586  966.365  958.870  959.347  962.020  957.208  959.704  956.149  957.061  963.998  954.260  956.857  955.800  956.449  957.225  980.766  956.470  963.617  951.715  966.922  955.259  957.537  961.805  959.064  959.508  959.561  956.551  962.084  963.604  958.379  967.504  964.878  960.895  961.463  964.611  966.795  959.589  960.010  957.600  962.521  972.775  965.063  965.956  973.311  961.921  961.635  959.695  962.123  961.728  960.003  966.309  962.974  962.846  961.302  958.582  969.454  960.228  957.226  968.075  960.910  977.488  958.987  962.128  968.666  965.686  979.018  963.977  961.649  964.143  960.696  962.607  969.262  961.123  962.411  964.420  963.618  966.196  963.458  963.156  965.560  961.424  966.349  961.220  970.753  962.664  963.246  978.279  962.843  962.052  962.827  967.337  965.583  961.815  963.348  961.836  969.499  971.881  963.491  966.806  971.841  966.572  974.703  960.550  962.661  964.858  966.569  968.436  965.277  964.136  966.503  966.436  969.919  973.418  965.975  968.744  964.455  967.636  977.964  965.247  970.411  967.155  965.119  977.410  969.000  965.171  971.609  972.494  969.685  970.532  970.164  969.166  966.491  985.196  972.766  970.930  970.981  971.551  984.220  970.042  974.516  977.179  973.028  988.837  969.853  970.562  971.305  970.585  986.331  970.639  971.238  970.613  967.934  970.567  968.632  970.419  967.108  965.486  969.383  965.169  966.399  974.542  969.584  970.300  980.986  970.917  976.893  970.690  973.812  973.239  972.913  971.919  974.844  968.621  976.751  969.387  970.493  973.398  970.038  973.552  971.875  969.146  981.409  968.546  967.765  971.671  976.037  974.816  971.997  974.543  972.549  964.893 
DATE 2015:203:19:26:15 obsn  11 az 245 el 51 freq_MHz  1421.5000 Tsys 182.760 Tant 753.859 vlsr   10.18 glat 25.425 glon 202.188 source Sun 
Fstart 1420.497 fstop 1422.503 spacing 0.009375 bw    2.400 fbw    2.000 MHz nfreq 256 nsam 1048576 npoint 214 integ    28 sigma    0.354 bsw 0
Spectrum 
 945.257  951.586  946.951  949.525  949.651  955.422  952.232  951.354  950.054  951.784  951.842  952.896  964.221  953.634  958.324  959.149  961.344  959.689  960.244  963.584  961.692  960.809  967.467  958.624  963.425  956.316  955.737  958.920  954.086  955.787  953.658  953.543  960.149  951.771  953.232  952.679  953.068  955.570  977.432  951.925  960.455  948.578  964.073  952.622  954.544  958.299  955.518  956.744  956.978  953.653  958.212  960.064  955.325  964.293  960.877  957.993  957.904  961.285  962.912  955.778  956.926  953.544  958.896  969.937  961.982  963.249  969.771  958.552  957.298  957.557  958.556  958.858  956.911  962.841  958.720  959.545  957.005  955.068  966.404  957.850  953.723  963.707  957.719  974.927  955.540  958.356  965.638  961.775  975.811  960.971  957.742  961.477  957.559  960.149  966.903  958.617  959.354  961.718  960.367  962.851  959.802  960.655  962.647  958.377  963.868  958.487  967.028  960.377  959.810  975.529  959.931  958.799  959.096  962.567  962.388  958.615  960.069  959.899  966.172  969.001  960.623  964.197  969.038  962.604  971.037  957.312  959.954  961.552  963.120  964.756  961.867  960.573  962.199  963.392  966.470  970.319  962.585  965.148  961.765  964.673  975.044  961.293  966.967  963.762  961.504  974.155  966.303  962.802  967.252  969.070  966.965  967.802  967.667  966.368  963.346  981.664  969.732  967.485  968.387  968.715  981.101  966.686  970.944  974.351  969.420  985.912  966.554  967.053  968.804  967.533  983.490  966.243  968.367  967.616  965.363  966.723  965.559  967.566  964.927  963.149  965.650  962.404  963.462  971.300  966.062  966.686  977.158  967.567  974.372  967.379  970.023  969.485  968.284  967.942  971.274  965.759  973.314  965.786  967.011  970.186  966.934  970.425  968.180  966.733  978.848  966.047  965.026  968.439  972.620  971.727  968.626  970.504  969.320  961.500 
DATE 2015:203:19:26:29 obsn  12 az 245 el 51 freq_MHz  1421.5000 Tsys 182.760 Tant 766.625 vlsr   10.18 glat 25.426 glon 202.188 source Sun 
Fstart 1420.497 fstop 1422.503 spacing 0.009375 bw    2.400 fbw    2.000 MHz nfreq 256 nsam 1048576 npoint 214 integ    31 sigma    0.341 bsw 0
Spectrum 
 943.548  949.090  944.620  947.240  948.408  953.680  951.246  949.958  948.845  949.520  949.469  950.913  962.228  951.690  956.127  957.634  960.117  958.268  958.263  961.826  959.256  958.564  965.017  957.159  961.456  954.460  954.407  956.775  951.509  953.510  951.995  951.163  958.636  950.382  951.163  950.359  950.507  953.879  975.590  950.010  958.074  946.685  962.336  950.342  953.242  956.139  953.573  954.368  954.774  952.027  955.477  957.881  953.669  962.606  958.741  955.502  955.810  959.623  961.365  954.470  955.112  951.480  957.100  968.415  959.992  960.849  969.171  957.089  954.867  955.349  956.846  957.255  955.271  961.363  956.908  957.595  955.128  952.682  964.504  956.610  951.488  961.833  955.868  973.365  953.109  956.304  963.474  960.571  975.257  959.548  956.438  960.638  956.180  958.395  963.894  956.892  958.164  960.240  957.730  961.111  957.637  958.398  961.146  955.738  962.237  956.288  964.745  957.934  957.867  973.227  957.274  958.145  957.738  959.696  960.756  956.829  957.879  957.559  964.653  967.053  959.815  962.227  967.623  960.153  970.121  955.946  957.664  960.160  960.812  962.869  960.474  959.151  960.412  961.116  963.932  968.125  960.647  963.479  959.861  963.198  973.210  959.421  965.498  962.079  959.475  971.799  964.330  961.399  965.457  967.736  965.360  965.270  965.824  964.082  962.222  979.685  968.183  965.927  966.397  967.145  979.664  965.158  968.583  972.250  967.529  983.859  963.982  965.391  965.849  965.767  982.308  965.355  967.273  966.355  964.149  966.095  963.756  965.706  963.329  961.996  964.033  960.286  961.923  970.127  963.934  965.420  975.755  966.101  972.870  965.084  968.017  967.943  966.516  966.270  969.196  964.151  972.264  963.319  965.283  968.758  964.512  967.939  966.792  964.628  977.493  964.920  963.333  967.188  971.001  969.682  967.313  968.745  966.870  959.883 
DATE 2015:203:19:26:42 obsn  13 az 245 el 51 freq_MHz  1421.5000 Tsys 182.760 Tant 779.076 vlsr   10.18 glat 25.426 glon 202.188 source Sun 
Fstart 1420.497 fstop 1422.503 spacing 0.009375 bw    2.400 fbw    2.000 MHz nfreq 256 nsam 1048576 npoint 214 integ    33 sigma    0.330 bsw 0
Spectrum 
 942.695  948.521  943.911  946.750  948.054  953.184  950.187  949.269  947.886  949.016  948.063  950.238  961.572  951.023  955.911  957.330  960.036  957.579  956.666  961.319  958.354  958.199  964.573  956.295  960.933  953.776  953.850  955.625  951.473  952.951  951.919  950.536  958.191  949.536  950.205  950.365  950.259  953.267  974.235  949.148  957.298  945.945  961.129  949.769  952.424  955.953  952.143  953.732  953.608  951.956  954.409  957.124  952.745  961.788  957.211  954.867  954.923  958.975  961.349  953.760  954.989  951.660  956.671  967.875  959.039  959.987  968.533  956.696  954.237  954.768  956.992  956.299  953.892  961.964  955.148  957.506  954.717  951.767  963.898  955.969  950.733  960.809  955.164  972.812  952.138  954.954  962.858  959.746  974.639  958.958  956.308  959.736  955.398  958.411  962.958  956.793  956.855  959.057  957.821  960.331  956.942  957.760  960.576  956.420  961.676  955.771  963.978  956.965  957.795  971.901  957.174  957.799  957.417  958.891  960.239  956.696  956.383  957.093  964.339  965.809  960.004  962.036  967.195  959.112  969.747  955.904  957.062  959.575  959.240  962.038  959.867  958.824  960.232  959.647  964.592  967.033  959.431  962.029  959.383  962.126  972.538  958.345  965.005  961.612  959.010  970.978  963.983  959.972  964.665  967.419  965.237  964.798  965.200  963.297  961.490  979.052  967.227  965.793  965.777  966.658  979.188  964.809  967.474  971.734  966.791  983.698  962.926  964.937  965.739  965.593  981.846  964.813  966.048  965.252  963.735  965.612  963.659  965.742  963.261  961.315  963.816  960.355  961.068  969.351  962.739  964.761  974.978  966.056  972.889  964.869  966.706  967.905  965.006  966.499  968.822  963.732  971.893  962.530  965.315  968.459  964.143  968.217  966.767  964.585  976.654  964.525  963.156  966.809  970.540  968.877  967.376  968.351  965.993  959.358 
DATE 2015:203:19:26:56 obsn  14 az 245 el 51 freq_MHz  1421.5000 Tsys 182.760 Tant 784.748 vlsr   10.18 glat 25.426 glon 202.188 source Sun 
Fstart 1420.497 fstop 1422.503 spacing 0.009375 bw    2.400 fbw    2.000 MHz nfreq 256 nsam 1048576 npoint 214 integ    35 sigma    0.319 bsw 0
Spectrum 
 942.778  948.873  944.420  946.568  947.472  952.693  950.756  949.331  947.262  949.555  948.269  950.503  961.252  951.512  956.124  956.941  960.863  958.297  956.722  961.649  958.498  958.478  965.521  956.270  961.374  954.434  954.524  955.800  952.320  952.791  952.321  950.663  958.723  949.614  950.286  950.564  950.360  953.417  974.603  949.193  957.966  946.611  961.572  949.523  952.506  956.260  952.402  954.571  953.996  952.123  954.450  957.768  953.311  961.857  957.200  955.266  955.022  959.924  961.790  953.922  955.188  952.484  956.260  967.625  959.447  960.639  968.841  956.743  954.708  954.200  957.056  956.260  954.901  961.606  954.953  957.201  954.266  952.016  963.613  956.137  951.546  961.440  955.723  972.862  952.703  955.705  962.846  959.783  974.623  959.824  956.927  958.970  954.868  958.622  963.029  957.122  956.979  959.332  958.383  960.975  956.509  958.060  960.148  956.323  962.222  955.465  963.132  957.570  958.083  971.806  956.853  957.896  957.507  958.606  960.960  957.345  956.393  957.850  964.890  966.734  959.684  962.964  967.658  959.014  969.361  956.676  957.319  960.152  959.381  962.506  960.271  958.863  960.390  959.681  965.481  967.231  959.528  961.744  960.060  961.529  972.538  958.108  964.174  961.693  959.845  970.579  964.459  959.792  964.917  967.707  965.564  964.749  965.350  964.162  962.034  979.022  967.145  965.763  966.464  967.283  978.925  965.182  967.581  972.471  966.824  984.088  963.194  964.727  965.931  966.657  982.572  965.388  966.448  965.387  963.303  965.775  964.323  966.592  963.845  961.247  964.077  961.207  962.108  969.989  962.959  965.150  975.138  966.432  974.296  965.547  967.378  967.844  965.333  966.698  969.377  964.541  972.042  963.177  965.375  968.498  964.967  968.452  967.288  964.755  977.313  964.472  963.610  966.187  969.981  969.039  968.247  969.018  966.605  959.790 
DATE 2015:203:19:27:09 obsn  15 az 245 el 51 freq_MHz  1421.5000 Tsys 182.760 Tant 808.668 vlsr   10.18 glat 25.426 glon 202.188 source Sun 
Fstart 1420.497 fstop 1422.503 spacing 0.009375 bw    2.400 fbw    2.000 MHz nfreq 256 nsam 1048576 npoint 214 integ    37 sigma    0.310 bsw 0
Spectrum 
 942.797  949.359  946.012  948.000  948.417  952.958  951.443  950.054  947.659  949.837  949.237  951.420  962.226  952.692  956.556  958.161  961.603  959.111  956.756  962.411  959.201  959.742  966.174  957.482  962.108  954.866  954.982  956.839  952.589  953.766  953.043  951.485  959.469  949.668  950.981  951.181  950.771  954.272  975.341  949.748  958.909  947.505  963.295  951.309  953.696  957.205  952.847  955.354  955.800  952.749  955.243  959.120  954.060  963.043  958.375  955.805  955.511  960.899  962.576  954.812  955.755  953.248  956.617  968.658  959.866  960.906  969.212  957.632  956.249  954.939  957.616  957.410  955.380  962.541  955.681  958.224  956.033  952.745  964.841  957.193  952.374  962.138  956.345  974.346  953.888  956.928  963.533  960.239  975.932  960.845  958.217  960.457  956.458  960.061  963.857  958.470  958.377  960.357  959.584  961.745  956.817  959.018  961.266  957.357  962.993  956.799  964.912  958.235  959.165  972.652  957.564  959.587  958.664  960.102  961.648  958.157  956.733  958.886  965.022  966.681  960.375  963.435  968.939  959.256  970.198  958.297  958.115  961.065  960.128  964.666  961.250  960.120  961.420  960.469  966.807  968.713  959.902  962.206  961.091  962.356  973.871  959.545  965.173  962.865  960.043  971.282  964.824  960.769  965.935  968.439  966.647  966.245  967.075  964.867  963.528  980.190  968.354  966.320  967.382  968.076  980.022  966.378  968.579  973.448  967.494  985.256  964.035  965.627  967.169  968.411  984.648  966.119  966.953  967.022  964.913  967.177  965.704  967.456  965.513  963.455  964.135  962.390  963.410  970.928  964.292  965.931  975.547  967.533  975.161  965.580  967.742  969.267  966.423  967.816  971.018  966.024  974.217  964.003  966.648  969.145  966.547  969.440  968.214  966.363  978.881  966.334  965.173  966.688  971.454  971.141  969.682  970.882  967.807  961.400 
DATE 2015:203:19:27:22 obsn  16 az 245 el 51 freq_MHz  1421.5000 Tsys 182.760 Tant 807.730 vlsr   10.18 glat 25.426 glon 202.188 source Sun 
Fstart 1420.497 fstop 1422.503 spacing 0.009375 bw    2.400 fbw    2.000 MHz nfreq 256 nsam 1048576 npoint 214 integ    39 sigma    0.301 bsw 0
Spectrum 
 944.362  950.617  947.682  949.362  949.319  954.779  952.287  951.270  949.398  951.305  950.925  952.888  963.484  954.685  958.426  958.374  962.827  960.763  958.028  963.500  960.692  961.683  967.149  958.687  963.410  955.736  956.934  958.844  953.885  955.585  955.610  952.690  961.004  950.994  953.270  953.105  952.164  955.225  977.361  951.390  960.160  949.229  965.236  952.534  954.855  957.989  954.102  956.137  957.451  954.544  956.655  959.946  955.667  964.436  960.394  957.508  957.141  962.531  964.215  956.225  957.739  954.332  958.206  970.206  960.977  962.508  970.997  958.962  957.902  956.835  958.875  959.589  957.036  963.835  956.781  959.419  957.362  954.904  966.793  958.121  954.398  963.486  957.097  975.942  955.614  958.851  965.124  962.280  977.282  962.120  960.489  962.461  958.199  961.203  965.842  960.334  959.416  961.624  961.337  963.964  958.574  961.164  963.615  958.729  964.407  958.353  966.125  960.307  961.095  974.406  958.751  961.199  960.326  961.719  963.550  959.522  958.732  961.437  967.024  968.180  961.713  964.558  970.941  960.574  971.422  960.144  959.116  962.521  961.931  966.909  963.001  960.887  962.313  961.578  968.882  970.148  961.455  964.777  962.992  963.442  975.624  961.562  967.028  965.118  961.459  972.605  966.947  962.353  967.611  969.933  968.340  967.820  968.184  966.775  965.984  981.879  970.101  967.568  969.252  969.958  981.745  968.027  970.422  975.164  968.533  986.629  965.746  966.853  969.284  969.818  986.681  967.252  968.259  968.430  966.746  968.336  967.332  969.136  967.168  965.302  966.091  964.628  964.832  972.869  965.368  967.355  976.573  969.175  976.937  967.535  969.072  971.430  967.679  969.492  971.922  967.735  975.923  966.314  968.575  970.489  967.343  971.182  969.347  968.082  980.271  968.276  967.522  968.551  973.473  972.783  970.494  973.130  969.522  963.597 
DATE 2015:203:19:27:36 obsn  17 az 245 el 51 freq_MHz  1421.5000 Tsys 182.760 Tant 831.432 vlsr   10.18 glat 25.426 glon 202.188 source Sun 
Fstart 1420.497 fstop 1422.503 spacing 0.009375 bw    2.400 fbw    2.000 MHz nfreq 256 nsam 1048576 npoint 214 integ    42 sigma    0.293 bsw 0
Spectrum 
 945.749  952.372  948.973  950.827  950.222  956.480  953.401  952.384  950.909  952.953  952.292  954.499  965.060  956.447  959.278  960.477  964.459  962.417  959.829  965.118  961.743  962.628  968.805  960.035  964.610  957.936  958.603  960.513  956.300  957.844  957.158  954.693  963.065  952.517  954.651  954.811  954.035  956.733  979.171  952.617  962.107  950.810  967.235  954.521  956.950  959.649  955.106  957.723  959.541  956.063  958.555  961.745  957.604  965.920  962.134  959.864  958.903  964.649  965.788  957.329  958.985  956.051  959.365  971.971  961.940  964.271  973.292  960.742  959.733  957.803  960.782  961.446  959.061  965.422  957.982  960.617  959.658  957.065  968.038  960.486  956.112  964.804  959.182  978.118  957.524  960.963  966.730  964.311  978.839  963.352  962.104  963.641  960.227  962.745  967.564  961.783  961.634  963.356  963.691  965.441  960.669  963.098  965.270  960.219  966.192  960.344  967.760  962.030  963.092  976.429  960.863  962.998  962.140  962.930  965.217  960.972  960.516  962.900  969.406  969.931  962.949  966.392  972.742  961.351  973.439  961.583  961.440  964.239  963.314  969.022  965.023  963.366  964.049  963.547  971.057  971.877  963.094  966.150  965.025  965.617  977.343  963.187  968.107  967.051  963.843  974.266  968.857  964.255  969.381  972.100  970.547  970.232  970.327  968.731  967.323  983.505  971.974  970.256  971.454  971.387  983.986  970.545  971.959  977.089  970.556  988.473  967.878  968.834  970.512  971.768  988.857  969.078  970.896  969.761  968.374  970.346  968.629  971.287  969.020  966.774  968.100  966.774  966.915  974.963  967.688  968.478  978.856  970.392  979.681  969.856  970.536  973.044  969.893  971.553  973.698  969.522  978.951  967.456  970.913  972.622  969.310  973.014  970.500  969.978  982.673  970.827  968.931  970.174  975.218  975.382  971.812  974.953  971.693  966.038 
DATE 2015:203:19:27:49 obsn  18 az 245 el 51 freq_MHz  1421.5000 Tsys 182.760 Tant 841.066 vlsr   10.18 glat 25.426 glon 202.188 source Sun 
Fstart 1420.497 fstop 1422.503 spacing 0.009375 bw    2.400 fbw    2.000 MHz nfreq 256 nsam 1048576 npoint 214 integ    44 sigma    0.286 bsw 0
Spectrum 
 947.530  954.690  951.786  953.367  952.870  958.369  955.369  954.248  953.369  954.562  953.886  957.168  967.065  958.341  960.680  962.421  966.764  964.267  961.828  966.849  963.513  964.347  970.415  962.281  966.350  960.452  961.379  963.394  959.066  959.777  959.507  956.727  965.418  955.036  956.680  956.920  955.870  959.290  980.983  954.876  964.951  953.149  969.623  956.308  959.205  961.448  956.526  960.104  961.664  957.966  960.616  963.617  959.669  968.075  963.612  961.644  960.549  966.341  968.367  959.034  961.976  958.949  960.909  974.331  963.529  966.036  975.240  962.442  961.496  959.582  963.141  963.350  961.623  968.170  960.296  963.201  962.139  959.611  969.826  962.268  958.001  966.818  961.503  980.809  960.069  963.440  969.067  966.306  980.908  965.396  963.597  965.197  962.614  965.066  970.021  964.513  963.870  965.263  966.248  968.044  963.572  965.327  967.198  962.274  968.909  963.062  969.848  963.944  965.422  978.853  963.264  965.490  964.446  964.737  966.954  963.490  962.754  964.915  971.513  972.362  965.337  968.875  975.223  963.480  975.855  963.896  964.380  966.174  965.300  971.207  966.948  966.256  966.558  965.647  973.772  973.989  964.994  968.047  967.140  968.193  979.573  965.639  970.188  969.275  966.231  976.183  971.071  966.894  972.717  973.635  972.320  973.026  972.459  970.817  969.127  985.689  974.328  972.498  973.888  973.345  985.726  972.831  975.122  979.907  972.490  991.224  970.513  971.646  972.650  973.966  990.945  971.174  973.437  972.372  971.012  972.563  970.831  973.661  971.422  969.774  970.634  969.169  969.248  977.407  970.341  970.969  981.486  972.245  982.922  972.233  972.312  974.984  971.848  973.923  975.636  971.272  980.872  969.594  973.399  974.470  971.456  975.317  973.083  972.644  985.939  973.212  971.607  973.114  978.230  977.716  974.566  977.193  974.198  967.910 
DATE 2015:203:19:28:02 obsn  19 az 245 el 51 freq_MHz  1421.5000 Tsys 182.760 Tant 855.009 vlsr   10.18 glat 25.426 glon 202.189 source Sun 
Fstart 1420.497 fstop 1422.503 spacing 0.009375 bw    2.400 fbw    2.000 MHz nfreq 256 nsam 1048576 npoint 214 integ    46 sigma    0.279 bsw 0
Spectrum 
 950.551  957.401  954.298  956.165  955.829  961.169  958.077  957.302  956.322  956.779  956.928  959.682  969.912  960.964  963.564  965.747  969.750  967.392  964.676  969.929  966.130  967.243  972.957  964.972  968.872  962.794  963.572  966.228  962.030  962.998  962.083  960.096  968.030  957.589  959.013  959.633  958.301  962.092  983.947  957.401  967.789  956.063  972.778  959.476  962.401  964.190  959.331  963.367  963.779  960.449  962.650  966.328  962.889  970.672  966.501  963.955  963.225  969.206  971.796  961.845  965.039  961.916  963.761  977.605  966.157  968.360  978.008  965.270  964.060  962.675  965.774  965.272  964.172  970.650  963.777  965.730  965.227  962.592  973.562  965.233  961.378  969.775  964.733  983.736  962.524  966.356  971.848  968.838  983.624  968.211  966.841  967.216  965.495  967.491  973.104  967.070  966.559  968.158  968.938  971.271  966.510  968.207  970.057  965.739  971.619  965.794  972.806  966.795  968.231  981.894  966.346  968.642  967.486  967.938  969.759  966.004  965.643  968.644  975.062  974.971  968.350  971.348  978.396  966.580  978.984  967.485  967.835  969.662  968.056  974.226  969.832  969.391  969.346  968.989  976.805  976.896  967.932  970.926  969.959  971.991  982.438  968.858  972.867  972.074  969.685  979.680  974.557  969.903  975.755  976.185  975.205  975.673  975.668  972.797  971.900  988.891  977.708  975.445  976.616  976.974  988.766  976.223  977.854  982.827  975.795  994.122  973.684  974.694  975.885  977.290  993.482  974.412  976.896  974.690  973.636  975.798  974.059  976.252  974.882  972.855  973.393  972.401  972.217  979.850  973.199  973.613  984.221  974.628  985.812  974.998  975.482  977.457  974.970  976.711  978.570  974.817  984.015  973.580  976.263  976.918  974.549  978.944  976.198  975.920  988.769  976.316  974.793  975.825  981.727  980.934  977.673  980.147  977.477  970.839 
DATE 2015:203:19:28:16 obsn  20 az 245 el 51 freq_MHz  1421.5000 Tsys 182.760 Tant 852.763 vlsr   10.18 glat 25.427 glon 202.189 source Sun 
Fstart 1420.497 fstop 1422.503 spacing 0.009375 bw    2.400 fbw    2.000 MHz nfreq 256 nsam 1048576 npoint 214 integ    48 sigma    0.272 bsw 0
Spectrum 
 953.174  960.506  956.881  958.371  958.697  963.934  960.505  960.326  958.565  960.128  959.709  962.380  972.136  964.325  966.614  968.204  972.662  969.910  967.724  972.886  968.716  970.458  975.207  967.170  971.429  965.346  966.292  968.703  964.759  965.577  964.845  962.291  970.847  960.340  961.167  962.847  961.432  964.297  986.794  959.655  970.662  959.196  975.135  961.842  965.301  966.910  962.226  966.274  966.540  963.377  965.733  968.669  966.117  972.476  969.355  967.143  966.623  971.862  974.286  964.385  967.168  964.561  965.965  980.150  968.551  971.099  981.094  968.021  967.162  965.900  968.556  968.155  967.017  973.773  966.869  968.496  968.169  965.354  976.057  968.400  964.087  972.678  967.581  987.124  965.517  969.414  975.000  971.161  986.398  970.586  969.528  969.743  969.016  969.947  976.018  969.847  968.755  970.519  972.028  974.252  970.052  971.957  973.110  968.829  973.857  968.904  976.482  969.346  971.269  984.224  969.535  971.546  970.010  970.787  972.541  968.592  968.334  971.197  978.048  977.842  971.009  974.416  981.068  969.498  981.913  969.730  970.774  972.517  970.842  976.868  972.404  972.094  972.184  972.385  979.595  980.106  971.041  973.881  972.575  974.999  985.535  971.615  975.190  975.005  972.880  982.285  977.589  972.882  979.237  979.694  978.005  978.928  978.615  975.609  974.595  991.933  980.738  978.047  979.317  980.058  991.681  979.010  980.597  985.639  979.183  997.715  976.497  978.206  978.750  980.455  996.477  977.568  979.569  977.846  976.612  978.552  977.251  979.024  977.553  975.796  975.893  975.338  974.484  982.615  976.545  976.704  987.716  977.395  989.049  977.833  978.648  980.881  977.692  979.521  981.387  977.477  986.852  976.432  979.477  979.852  977.044  981.587  979.360  978.608  992.359  979.794  978.043  979.071  984.984  984.351  980.942  982.853  980.061  973.566 
DATE 2015:203:19:28:29 obsn  21 az 245 el 51 freq_MHz  1421.5000 Tsys 182.760 Tant 855.063 vlsr   10.18 glat 25.427 glon 202.189 source Sun 
Fstart 1420.497 fstop 1422.503 spacing 0.009375 bw    2.400 fbw    2.000 MHz nfreq 256 nsam 1048576 npoint 214 integ    50 sigma    0.266 bsw 0
Spectrum 
 955.758  962.990  959.044  961.174  961.125  966.065  963.429  963.155  961.483  962.574  962.326  964.736  974.063  966.916  968.586  970.877  975.605  972.659  970.124  974.865  971.227  973.478  977.920  969.780  973.856  968.054  968.675  971.177  967.206  968.331  967.607  964.956  974.068  962.656  963.690  965.109  963.903  966.815  989.819  962.835  973.138  962.256  977.821  964.336  968.057  969.601  964.800  968.412  969.088  965.534  968.292  971.492  968.865  975.004  972.139  969.661  968.757  974.719  977.020  967.475  969.936  967.507  968.549  982.600  970.984  974.153  983.356  971.040  969.657  968.245  971.455  970.847  969.560  975.848  969.643  971.436  971.413  967.573  979.016  971.073  966.788  975.266  970.352  989.866  968.172  972.094  978.213  974.063  988.850  973.429  972.572  972.301  971.390  972.702  978.585  972.719  971.267  973.636  974.245  977.128  972.909  974.071  975.966  971.766  976.281  971.819  979.189  972.459  973.932  986.510  972.111  974.685  972.953  973.387  975.134  971.172  970.767  973.314  980.780  981.190  973.425  976.834  983.889  972.009  984.332  972.956  973.400  975.720  974.051  979.948  974.806  975.342  975.064  975.221  982.469  982.846  973.691  976.157  975.713  977.775  988.287  973.757  977.743  978.191  975.880  985.415  980.308  975.864  981.447  982.321  981.042  982.404  981.085  978.305  977.399  994.618  983.561  981.342  982.034  983.433  994.948  981.478  983.550  988.806  982.223 1000.831  979.155  980.238  981.945  983.246  999.050  980.576  982.838  981.176  979.643  981.464  980.218  981.161  980.360  978.510  978.511  978.477  976.836  985.102  979.141  979.018  991.110  980.049  991.716  980.770  982.063  983.569  980.675  982.393  984.970  980.127  989.804  979.094  982.047  982.838  979.909  984.990  982.195  981.207  995.049  982.363  981.059  981.550  988.082  987.669  983.621  985.871  982.354  976.055 
DATE 2015:203:19:28:42 obsn  22 az 245 el 51 freq_MHz  1421.5000 Tsys 182.760 Tant 867.458 vlsr   10.18 glat 25.427 glon 202.189 source Sun 
Fstart 1420.497 fstop 1422.503 spacing 0.009375 bw    2.400 fbw    2.000 MHz nfreq 256 nsam 1048576 npoint 214 integ    52 sigma    0.261 bsw 0
Spectrum 
 957.865  965.293  961.879  963.624  964.155  968.861  965.660  965.293  964.738  965.131  965.313  967.321  976.462  969.250  970.939  974.030  978.178  975.674  972.791  977.689  973.961  975.579  980.595  972.762  976.782  971.000  971.688  973.392  969.888  970.877  969.884  967.919  977.187  965.211  966.408  967.612  966.386  969.575  992.024  965.247  976.206  965.612  980.394  966.367  970.962  972.362  967.500  971.294  971.676  968.509  970.749  973.891  971.054  977.199  974.695  972.345  971.378  977.288  979.526  970.480  972.351  971.047  971.200  985.713  973.701  976.918  986.299  974.404  972.891  970.913  974.144  973.791  972.179  978.042  972.298  974.009  974.331  970.712  982.062  973.989  969.960  977.271  972.697  992.468  971.155  974.813  981.141  976.940  991.559  976.052  975.349  974.375  974.172  975.348  981.875  975.403  974.570  976.622  976.622  979.969  975.876  977.047  978.396  975.187  979.213  974.546  982.292  975.331  976.349  988.714  974.650  977.419  975.716  976.042  978.189  974.072  974.188  976.290  983.924  984.362  976.483  979.130  986.670  974.909  987.480  976.050  975.830  978.453  976.763  982.643  977.526  977.694  978.005  978.633  985.010  985.547  976.408  978.724  978.649  980.314  990.821  976.393  980.573  980.707  979.211  987.821  982.749  978.797  983.991  985.104  983.573  985.608  983.761  980.560  979.945  997.310  986.272  984.209  984.975  986.999  997.922  984.423  986.399  991.927  985.111 1003.662  981.733  982.604  985.158  986.005 1002.042  983.303  986.112  984.337  982.971  984.349  982.993  983.734  983.283  981.582  981.204  980.893  979.967  988.011  981.814  981.677  994.301  982.860  994.281  983.382  985.132  986.139  983.321  985.227  987.478  983.322  992.432  981.885  985.064  986.051  982.623  987.416  984.777  984.021  997.432  984.726  984.447  983.988  991.293  990.215  987.420  988.952  985.067  978.885 
DATE 2015:203:19:28:55 obsn  23 az 245 el 51 freq_MHz  1421.5000 Tsys 182.760 Tant 882.548 vlsr   10.18 glat 25.427 glon 202.189 source Sun 
Fstart 1420.497 fstop 1422.503 spacing 0.009375 bw    2.400 fbw    2.000 MHz nfreq 256 nsam 1048576 npoint 214 integ    55 sigma    0.255 bsw 0
Spectrum 
 960.518  967.834  964.259  966.214  966.801  971.878  968.795  967.888  967.599  967.624  968.355  969.760  978.918  971.838  973.789  977.028  980.378  978.199  975.426  980.629  976.901  978.056  983.835  975.856  979.331  973.937  974.511  975.806  972.537  973.419  972.129  970.268  979.771  967.590  969.402  970.620  969.561  972.471  994.919  967.975  979.108  968.718  983.056  969.852  973.480  975.157  970.512  974.432  974.483  971.429  974.095  976.974  974.030  980.004  977.725  975.330  974.350  980.100  982.454  972.757  975.495  973.830  974.123  988.438  976.787  979.601  989.531  977.257  975.882  973.665  976.741  976.428  974.541  980.648  974.939  976.881  976.765  973.445  985.127  976.858  973.030  980.263  976.292  995.379  973.810  977.713  984.014  980.052  994.472  978.701  978.235  976.915  977.513  978.815  985.654  978.941  977.539  979.809  980.570  982.959  978.938  980.034  981.063  978.302  982.367  977.612  985.020  978.388  979.236  991.568  977.278  980.056  978.193  979.540  981.567  977.099  977.362  978.850  986.856  987.792  979.250  982.438  989.742  977.509  990.852  978.963  979.135  980.853  979.196  985.349  980.061  980.631  980.841  981.828  988.492  987.987  979.664  981.610  981.953  983.946  994.087  979.522  983.791  983.764  982.075  990.924  985.402  981.756  986.507  988.240  986.947  988.902  986.455  983.502  983.319 1000.311  989.417  986.877  987.875  989.581 1000.555  987.116  988.727  995.090  987.695 1006.645  984.802  986.072  988.612  989.089 1004.825  986.179  989.400  987.251  986.071  987.507  986.094  987.482  986.359  984.204  984.470  983.877  982.857  991.203  985.214  985.324  997.110  986.039  996.753  986.651  987.797  989.216  986.434  987.965  991.028  985.961  995.297  985.210  987.678  989.129  985.475  989.927  987.843  986.974 1000.551  987.765  987.394  987.160  994.763  993.822  990.352  991.529  988.049  982.324 
DATE 2015:203:19:29:10 obsn  24 az 246 el 51 freq_MHz  1421.5000 Tsys 182.760 Tant 786.561 vlsr   10.18 glat 25.427 glon 202.189 source Sun 
Fstart 1420.497 fstop 1422.503 spacing 0.009375 bw    2.400 fbw    2.000 MHz nfreq 256 nsam 1048576 npoint 214 integ    57 sigma    0.250 bsw 0
Spectrum 
 963.012  970.336  966.378  968.451  969.104  974.084  971.334  970.136  969.771  970.181  970.486  971.963  981.463  974.430  976.189  978.941  983.221  980.559  977.708  982.896  979.607  980.422  986.005  978.083  981.209  976.293  976.907  978.552  974.706  976.280  974.287  972.472  981.985  970.056  971.893  972.901  971.854  975.029  996.721  970.512  981.529  971.085  985.156  972.583  976.106  978.106  973.047  976.294  976.584  973.386  976.552  979.566  976.543  981.887  980.331  977.994  976.715  982.822  984.816  975.182  978.245  976.853  976.579  991.648  979.343  982.254  992.030  979.974  978.788  975.959  979.116  978.746  977.112  982.987  977.745  979.384  979.285  975.737  987.523  979.362  975.539  983.206  978.655  997.870  976.063  980.260  986.387  982.809  997.241  981.192  980.953  979.181  979.294  981.678  988.039  981.575  979.646  982.690  983.260  985.163  981.208  983.208  983.036  980.417  984.568  980.407  987.746  981.240  981.344  993.513  979.708  982.495  980.854  981.767  983.803  979.350  979.779  981.122  988.953  989.807  981.867  985.013  991.877  979.758  993.481  981.215  981.791  983.317  981.531  988.694  982.185  983.103  982.912  984.567  991.062  990.334  982.964  983.944  984.378  986.006  996.195  981.816  986.333  985.849  984.604  992.942  987.639  984.516  988.903  990.723  989.448  991.171  988.975  986.400  986.156 1002.742  992.112  988.976  990.391  992.291 1003.232  990.125  990.963  997.710  990.199 1009.330  986.832  988.547  991.367  991.942 1007.790  988.647  992.044  989.752  988.192  990.039  988.938  990.145  988.796  987.146  987.333  986.496  985.859  993.722  988.141  987.845  999.949  988.581  999.511  989.291  990.606  991.905  988.764  990.519  993.763  988.728  998.346  987.449  990.515  991.723  988.250  992.710  990.736  989.436 1003.346  990.132  989.653  989.847  997.449  996.948  993.298  993.300  990.909  985.121 
DATE 2015:203:19:29:23 obsn  25 az 246 el 51 freq_MHz  1421.5000 Tsys 182.760 Tant 808.287 vlsr   10.18 glat 25.427 glon 202.189 source Sun 
Fstart 1420.497 fstop 1422.503 spacing 0.009375 bw    2.400 fbw    2.000 MHz nfreq 256 nsam 1048576 npoint 214 integ    59 sigma    0.246 bsw 0
Spectrum 
 962.822  970.146  965.951  967.939  969.438  974.047  970.933  969.958  969.669  970.119  970.546  971.463  980.909  974.405  976.370  978.484  982.921  980.473  977.296  982.524  979.004  980.623  985.856  978.326  981.102  975.996  977.196  978.696  974.291  976.265  974.508  972.164  982.147  970.127  971.649  973.183  971.600  974.816  996.829  970.526  981.744  971.093  985.084  972.194  976.039  977.768  972.842  975.749  976.598  973.173  976.520  979.904  976.219  982.219  980.346  977.981  976.965  982.620  984.454  975.452  978.118  976.517  976.679  991.279  979.523  982.477  992.283  979.781  978.594  976.001  979.119  979.047  977.538  983.338  977.805  979.416  979.545  975.616  987.330  978.386  975.633  983.415  978.501  998.369  976.028  980.383  986.118  982.489  997.522  981.553  981.240  979.012  979.451  981.492  988.124  981.002  979.600  982.505  983.135  985.081  981.295  983.437  982.684  980.714  984.328  980.185  987.931  981.573  981.383  993.578  979.992  982.539  981.092  981.785  983.424  979.554  980.189  981.455  988.543  990.260  981.656  985.256  991.552  979.358  993.368  980.888  981.666  983.706  981.271  988.032  982.612  983.333  983.657  984.198  990.862  990.042  982.932  984.105  984.238  985.984  995.757  982.030  986.050  985.768  984.720  992.803  987.113  984.481  989.104  990.919  989.651  991.168  989.209  986.302  986.239 1002.894  991.793  988.991  990.595  991.967 1003.098  990.294  991.394  997.556  990.241 1009.366  987.117  988.377  991.165  992.106 1007.956  988.824  991.778  989.597  988.379  989.805  989.207  989.922  988.396  987.441  987.637  986.576  986.013  993.709  988.366  987.681  999.309  988.590  999.563  989.668  990.301  992.021  988.615  990.784  993.667  988.825  998.703  987.625  990.763  991.779  988.745  992.684  990.935  989.731 1003.174  989.973  989.348  989.917  997.407  996.547  993.313  993.434  991.026  985.047 
DATE 2015:203:19:29:37 obsn  26 az 246 el 51 freq_MHz  1421.5000 Tsys 182.760 Tant 794.190 vlsr   10.18 glat 25.427 glon 202.189 source Sun 
Fstart 1420.497 fstop 1422.503 spacing 0.009375 bw    2.400 fbw    2.000 MHz nfreq 256 nsam 1048576 npoint 214 integ    61 sigma    0.241 bsw 0
Spectrum 
 962.843  970.476  966.009  967.783  970.062  973.704  970.516  969.879  969.722  970.095  970.192  971.516  981.008  974.296  976.536  978.901  983.062  980.632  977.588  983.062  979.197  980.418  986.221  978.504  981.586  976.113  977.032  979.260  974.221  975.889  974.621  972.138  982.188  970.446  971.957  973.139  971.631  974.305  997.407  970.831  981.617  971.560  985.606  972.532  976.158  977.980  972.942  976.046  977.062  972.871  976.403  979.785  976.647  982.173  980.675  977.846  977.101  982.737  984.530  975.277  978.325  976.308  976.843  991.420  979.831  982.512  992.589  979.993  978.666  976.196  979.835  979.033  977.766  984.065  978.048  979.673  979.604  976.160  987.739  978.428  975.836  983.443  979.150  998.773  976.155  980.600  986.262  982.897  997.808  981.960  981.280  979.019  980.085  981.982  988.547  981.288  979.419  982.430  982.680  985.689  981.595  983.492  982.897  980.850  984.645  980.295  987.970  982.130  981.885  993.907  980.580  982.933  980.914  982.147  983.845  979.943  980.475  981.656  988.925  990.157  981.609  985.565  991.668  979.969  993.370  980.857  981.930  984.351  982.075  988.414  982.278  983.927  984.022  984.682  991.219  990.551  983.269  984.761  984.119  986.391  996.008  982.042  986.247  985.720  984.475  992.876  987.184  984.808  989.298  991.060  989.693  991.331  989.617  986.546  986.447 1003.378  991.604  989.400  990.556  992.166 1002.946  990.845  991.611  997.426  990.307 1009.348  987.216  988.981  991.471  992.497 1008.279  989.150  991.854  989.568  988.733  989.899  989.392  989.932  988.420  987.666  987.758  986.718  986.449  993.854  988.376  987.794  999.037  988.875  999.507  989.651  990.359  992.284  989.105  990.598  994.627  988.921  999.156  987.346  990.908  991.890  988.857  993.038  991.468  989.603 1003.365  990.000  989.353  989.992  997.724  996.803  993.705  993.554  991.397  985.490 
DATE 2015:203:19:29:50 obsn  27 az 246 el 51 freq_MHz  1421.5000 Tsys 182.760 Tant 831.062 vlsr   10.18 glat 25.427 glon 202.189 source Sun 
Fstart 1420.497 fstop 1422.503 spacing 0.009375 bw    2.400 fbw    2.000 MHz nfreq 256 nsam 1048576 npoint 214 integ    63 sigma    0.237 bsw 0
Spectrum 
 964.158  972.044  967.619  969.399  971.919  975.037  971.627  971.390  971.706  971.628  971.585  972.670  982.202  975.447  977.941  980.244  984.748  982.112  979.028  984.866  979.915  981.854  987.814  980.101  983.226  977.815  978.334  980.882  975.629  977.248  976.237  973.325  983.888  972.066  973.809  975.094  973.220  975.418  998.770  972.533  983.317  973.235  986.880  974.456  977.554  979.782  974.754  977.491  978.664  974.804  977.595  981.490  977.842  984.038  981.614  978.706  979.073  984.398  985.666  976.869  980.025  977.928  978.387  993.205  981.357  984.299  994.201  981.494  980.147  977.720  980.890  980.572  979.410  985.798  979.045  981.007  981.331  977.475  989.847  979.978  977.696  984.922  980.679 1000.419  977.904  981.669  988.029  984.111  999.309  982.991  982.735  981.087  981.465  983.504  989.818  982.718  980.734  983.946  983.929  986.711  983.163  984.934  984.492  982.581  986.173  982.301  989.453  983.574  983.623  995.823  982.188  984.433  982.270  983.864  985.398  981.573  981.963  983.205  990.513  991.550  983.386  987.164  993.046  981.691  995.150  982.180  983.479  986.031  983.508  989.568  983.919  985.576  985.989  985.988  992.875  991.937  984.974  986.302  985.486  987.968  997.329  983.973  987.846  986.972  986.122  994.366  989.078  986.670  991.158  992.125  991.149  993.061  991.197  988.160  987.850 1004.946  993.334  990.968  992.298  994.020 1004.507  992.724  993.235  998.887  991.953 1010.663  989.039  990.634  993.060  994.127 1009.750  990.625  993.808  991.418  990.653  991.885  990.931  991.586  990.062  989.075  989.070  988.092  987.921  995.193  990.250  989.655 1000.761  990.523 1000.840  991.141  992.130  993.839  990.841  992.422  996.050  990.069 1000.759  989.197  992.851  993.428  990.070  994.303  992.931  990.881 1004.691  991.389  991.122  990.955  999.465  998.426  995.425  995.113  993.275  986.942 
DATE 2015:203:19:30:03 obsn  28 az 246 el 51 freq_MHz  1421.5000 Tsys 182.760 Tant 865.787 vlsr   10.18 glat 25.427 glon 202.189 source Sun 
Fstart 1420.497 fstop 1422.503 spacing 0.009375 bw    2.400 fbw    2.000 MHz nfreq 256 nsam 1048576 npoint 214 integ    66 sigma    0.233 bsw 0
Spectrum 
 966.002  973.963  969.461  971.352  973.835  976.723  973.724  973.287  973.928  973.608  973.279  974.600  983.661  977.093  980.059  982.166  986.497  984.084  981.186  986.582  981.601  983.893  989.824  982.063  985.454  979.768  980.607  982.948  977.811  978.888  977.751  975.411  985.721  974.043  975.721  976.906  975.160  977.565 1000.482  974.613  985.741  975.441  988.557  975.953  979.423  981.607  976.704  979.424  980.482  976.724  979.504  982.884  980.310  985.814  983.492  980.458  981.141  986.035  987.502  978.981  982.199  979.540  980.323  995.421  983.501  986.101  996.405  983.643  982.335  979.870  982.590  982.248  981.260  987.602  980.948  982.693  983.114  979.340  992.177  981.678  979.665  987.028  983.077 1002.322  980.184  983.602  990.049  986.295 1001.249  984.363  984.852  983.264  983.416  985.761  991.805  985.332  982.766  985.710  986.207  988.627  985.150  986.957  986.370  984.547  987.751  984.338  991.477  985.672  986.110  998.141  984.549  986.327  984.395  985.564  987.411  983.806  984.357  985.001  992.671  993.687  984.877  989.044  995.170  983.617  997.164  984.485  985.727  987.821  984.811  991.756  985.671  987.578  988.025  987.481  995.332  994.134  987.143  988.325  987.563  990.016  999.384  986.227  989.600  988.800  988.122  995.878  991.019  988.841  993.264  994.133  992.941  995.046  993.145  989.761  989.493 1006.451  995.291  992.462  994.243  995.470 1006.781  994.689  994.744 1000.342  993.666 1012.800  991.111  992.637  994.926  995.891 1011.865  992.931  995.261  993.245  992.531  994.104  992.960  993.492  992.157  991.111  991.471  989.958  989.687  996.943  992.117  991.417 1002.351  992.527 1002.891  992.960  994.078  995.933  992.590  994.198  997.766  991.744 1002.602  991.056  994.840  995.593  991.843  996.515  994.731  992.543 1006.497  993.281  993.071  993.162 1001.729 1000.382  997.221  996.614  995.178  989.282 
DATE 2015:203:19:30:16 obsn  29 az 246 el 51 freq_MHz  1421.5000 Tsys 182.760 Tant 853.181 vlsr   10.18 glat 25.428 glon 202.189 source Sun 
Fstart 1420.497 fstop 1422.503 spacing 0.009375 bw    2.400 fbw    2.000 MHz nfreq 256 nsam 1048576 npoint 214 integ    68 sigma    0.229 bsw 0
Spectrum 
 967.779  975.692  971.030  972.999  975.345  977.962  975.801  974.809  976.079  975.325  974.896  976.741  985.193  979.063  981.684  983.891  988.134  985.719  982.904  988.608  983.395  985.698  991.930  984.025  986.835  981.328  982.232  984.730  979.033  980.391  979.460  976.966  987.641  976.055  977.845  979.131  977.032  979.339 1002.305  976.347  987.231  977.223  990.388  978.036  980.903  983.141  978.261  981.569  982.104  978.419  981.196  984.790  982.069  987.576  986.031  982.175  982.663  987.953  989.541  981.165  983.930  981.369  981.773  997.264  985.343  987.822  998.512  985.464  983.967  981.310  984.108  983.848  983.110  989.654  982.995  984.019  984.708  981.317  993.958  983.377  981.786  989.144  984.926 1003.653  981.625  985.298  992.062  987.855 1003.275  986.378  986.750  984.862  985.651  987.417  993.494  986.880  984.314  987.588  987.945  990.938  987.044  989.026  988.481  985.943  989.614  986.005  993.563  987.655  987.710  999.904  986.166  988.240  986.125  987.256  988.792  985.542  986.156  987.098  994.523  995.206  986.302  990.589  997.124  985.741  999.339  986.235  987.495  989.605  986.553  993.706  987.243  989.508  989.959  989.062  997.236  995.823  989.109  990.090  988.927  991.573 1001.436  987.489  991.353  990.351  989.955  997.598  992.859  991.072  995.012  995.956  995.255  996.629  995.217  991.348  991.236 1008.560  997.283  994.326  995.969  997.160 1008.587  995.970  996.290 1002.183  995.181 1014.423  992.727  994.467  996.825  997.426 1013.715  994.497  997.221  994.674  993.835  995.759  994.109  995.217  993.544  992.757  993.321  991.435  991.392  998.737  994.102  993.330 1003.813  994.347 1004.974  994.731  995.956  997.517  994.462  996.355  999.571  993.611 1004.415  993.221  996.681  997.533  993.636  997.699  996.131  994.625 1008.061  994.770  994.537  995.175 1003.407 1002.182  998.958  998.213  996.742  990.393 
DATE 2015:203:19:30:29 obsn  30 az 246 el 51 freq_MHz  1421.5000 Tsys 182.760 Tant 864.639 vlsr   10.18 glat 25.428 glon 202.190 source Sun 
Fstart 1420.497 fstop 1422.503 spacing 0.009375 bw    2.400 fbw    2.000 MHz nfreq 256 nsam 1048576 npoint 214 integ    70 sigma    0.226 bsw 0
Spectrum 
 969.320  976.976  972.524  974.738  976.711  979.516  977.464  976.263  977.207  976.423  975.928  978.055  986.751  980.172  983.022  985.720  989.177  987.170  984.424  990.348  985.201  987.266  993.300  985.084  988.152  982.523  983.589  985.859  980.406  981.408  980.605  978.509  988.804  977.542  979.000  980.756  978.665  980.381 1003.859  977.554  988.315  978.622  992.153  979.537  981.974  984.250  979.745  983.102  983.625  979.542  982.365  986.212  983.220  989.031  987.249  983.535  984.577  989.731  990.865  982.275  985.890  982.755  983.192  998.597  986.457  989.269 1000.218  987.406  985.177  983.104  985.537  985.060  984.733  991.043  984.443  985.497  986.072  983.020  995.625  984.885  983.159  990.208  986.340 1004.869  982.963  986.705  993.129  989.569 1004.656  988.053  987.986  986.501  987.199  988.598  994.771  987.964  985.798  989.338  989.393  992.420  988.159  990.691  989.942  987.179  991.211  987.437  994.853  989.289  989.319 1001.525  987.810  989.370  987.628  988.626  990.067  986.666  987.679  988.882  995.673  996.732  987.874  992.056  998.267  987.473 1000.980  987.682  988.738  991.081  988.060  995.353  988.966  990.618  990.747  990.771  998.963  997.334  989.979  991.341  990.510  992.820 1003.111  989.293  992.982  991.223  991.423  998.850  994.215  992.635  996.846  997.385  996.737  998.324  996.703  993.063  992.272 1009.924  998.570  995.912  997.435  998.875 1010.162  997.648  997.743 1003.295  996.749 1015.764  994.034  996.157  998.660  998.281 1014.901  995.208  998.749  996.265  995.091  997.157  995.612  996.836  994.878  993.939  994.306  992.779  992.806 1000.069  995.458  994.793 1005.267  995.790 1006.724  996.477  996.936  998.370  995.799  997.867 1000.974  994.858 1005.771  994.816  998.181  998.761  995.304  998.836  997.246  996.270 1009.767  996.167  995.556  996.547 1004.923 1003.406 1000.213  999.795  998.181  991.657 
DATE 2015:203:19:30:42 obsn  31 az 246 el 51 freq_MHz  1421.5000 Tsys 182.760 Tant 868.239 vlsr   10.18 glat 25.428 glon 202.190 source Sun 
Fstart 1420.497 fstop 1422.503 spacing 0.009375 bw    2.400 fbw    2.000 MHz nfreq 256 nsam 1048576 npoint 214 integ    72 sigma    0.222 bsw 0
Spectrum 
 971.228  978.942  974.851  976.840  978.250  981.437  979.391  977.957  978.725  978.372  978.025  979.981  988.624  981.844  985.163  987.539  990.818  989.115  986.571  992.431  986.986  989.235  995.115  987.100  990.111  984.545  985.003  988.076  982.109  983.323  982.606  980.522  990.490  979.428  981.085  982.784  981.090  982.290 1005.853  979.256  989.640  980.322  994.123  981.290  983.584  986.042  981.655  984.848  985.735  981.278  984.638  988.201  985.286  991.121  989.266  985.751  986.571  991.680  992.541  984.431  987.856  984.821  985.592 1000.549  988.162  991.686 1002.555  989.783  987.276  985.033  987.289  986.886  986.775  993.202  986.271  987.094  987.841  984.906  997.346  986.757  985.196  992.125  988.250 1007.140  985.066  988.488  994.967  991.283 1006.268  989.882  989.934  988.260  989.412  990.875  996.865  989.728  987.985  991.321  991.238  994.417  990.376  992.725  991.953  989.368  993.033  989.441  997.206  991.132  991.498 1003.587  989.708  991.449  989.375  990.066  991.917  988.588  989.535  991.135  997.469  998.304  990.232  993.942 1000.017  989.414 1003.052  989.796  991.334  992.845  990.109  997.391  991.139  992.639  992.810  992.775 1001.457  999.572  991.552  993.142  992.358  994.933 1005.248  991.156  995.016  993.149  993.136 1000.904  995.883  994.608  998.735  999.356  998.829 1000.257  998.911  995.073  994.048 1011.781 1000.491  997.953  999.274 1000.258 1011.894  999.286  999.582 1005.403  998.494 1018.009  996.187  997.911 1000.499  999.860 1016.630  997.294 1000.822  998.361  996.853  999.060  997.849  999.043  996.664  995.427  996.084  994.911  994.781 1001.853  997.154  996.787 1007.193  997.646 1008.871  998.380  998.976 1000.801  998.130  999.843 1002.898  996.765 1007.575  996.416 1000.303 1000.286  996.644 1000.804  999.151  998.513 1011.579  997.578  997.462  998.913 1006.642 1005.266 1002.039 1001.768 1000.140  993.551 
DATE 2015:203:19:30:56 obsn  32 az 246 el 51 freq_MHz  1421.5000 Tsys 182.760 Tant 845.304 vlsr   10.18 glat 25.428 glon 202.190 source Sun 
Fstart 1420.497 fstop 1422.503 spacing 0.009375 bw    2.400 fbw    2.000 MHz nfreq 256 nsam 1048576 npoint 214 integ    74 sigma    0.219 bsw 0
Spectrum 
 972.474  980.392  976.061  978.324  979.690  982.737  980.378  979.192  980.179  979.767  979.275  981.209  990.168  982.950  986.546  988.698  992.137  990.421  987.771  993.410  988.614  990.757  996.309  988.236  991.527  985.594  986.261  989.089  983.671  984.971  983.866  981.610  991.919  980.893  982.150  984.294  982.377  983.579 1006.939  980.528  991.055  981.929  995.500  982.679  985.000  987.766  983.092  986.424  987.258  982.556  986.042  989.311  987.159  992.261  990.709  987.431  988.053  993.139  994.107  985.808  989.540  986.355  987.135 1001.704  989.256  992.828 1003.615  991.168  988.225  986.677  988.634  988.385  988.462  994.442  987.861  988.378  989.002  986.015  998.577  988.269  986.397  993.449  989.526 1008.600  986.474  990.042  996.545  992.469 1007.526  991.342  991.825  989.873  990.764  992.269  998.259  991.078  989.298  993.026  992.550  995.736  991.851  994.273  993.437  991.005  993.901  990.917  998.680  992.795  992.871 1005.240  991.144  992.810  990.826  991.839  993.378  990.053  990.702  992.015  998.681  999.384  991.497  995.177 1001.276  990.804 1004.380  991.224  992.624  994.202  991.244  998.560  992.224  993.516  994.333  993.927 1002.360 1000.851  992.466  994.720  993.607  996.135 1006.524  992.393  996.491  994.299  994.190 1002.231  997.176  995.861  999.950 1000.645 1000.158 1001.230 1000.185  996.656  995.334 1013.100 1001.837  999.273 1000.430 1001.605 1012.902 1000.855 1000.928 1006.620  999.735 1019.157  997.019  999.400 1002.277 1001.010 1017.856  998.472 1002.257  999.153  997.992 1000.487  999.154 1000.246  998.009  996.792  997.482  996.293  996.114 1002.838  998.278  998.069 1008.208  998.574 1010.176  999.464 1000.362 1002.370  999.415 1001.126 1003.995  998.203 1008.872  997.710 1001.506 1001.593  997.864 1002.104 1000.364  999.553 1012.810  999.020  998.860 1000.372 1007.947 1006.531 1003.445 1003.162 1001.185  994.840 
DATE 2015:203:19:31:09 obsn  33 az 246 el 51 freq_MHz  1421.5000 Tsys 182.760 Tant 863.229 vlsr   10.18 glat 25.428 glon 202.190 source Sun 
Fstart 1420.497 fstop 1422.503 spacing 0.009375 bw    2.400 fbw    2.000 MHz nfreq 256 nsam 1048576 npoint 214 integ    76 sigma    0.216 bsw 0
Spectrum 
 973.846  981.834  977.168  979.671  980.834  983.926  981.545  980.591  981.484  980.962  980.377  982.121  991.579  984.094  987.897  990.082  992.978  991.703  989.395  994.799  989.832  991.800  997.546  989.581  992.915  987.012  987.299  990.277  984.567  986.305  985.368  983.291  993.748  982.159  983.695  985.871  983.929  984.792 1008.466  981.831  992.711  983.688  996.797  983.758  986.691  989.362  984.110  987.776  988.673  984.091  987.601  990.479  988.295  993.571  992.040  988.638  989.914  994.565  995.626  987.174  990.772  987.910  988.737 1003.121  990.676  994.155 1004.732  992.651  989.920  988.002  990.013  989.682  989.754  995.615  988.856  989.606  990.543  987.394 1000.164  989.909  988.023  995.091  990.867 1009.997  988.179  991.466  998.132  993.585 1008.755  992.360  993.231  991.368  992.142  993.422  999.275  992.441  990.968  994.499  994.146  997.356  993.270  995.483  994.820  992.337  995.311  992.310 1000.012  994.259  993.937 1006.365  992.090  994.345  992.422  993.374  994.757  991.352  992.164  993.263 1000.170 1000.796  992.518  996.551 1002.626  992.261 1005.892  992.706  993.811  996.077  992.817  999.938  993.570  995.185  995.778  995.493 1004.066 1002.028  993.432  995.865  994.935  997.347 1008.389  993.607  997.871  995.722  995.996 1003.578  998.550  997.096 1001.280 1002.074 1001.497 1002.665 1001.545  998.417  997.000 1014.789 1003.170 1000.778 1001.627 1002.591 1014.487 1002.267 1002.616 1007.816 1001.236 1020.793  998.538 1000.676 1003.340 1001.909 1019.515  999.979 1003.861 1001.093  999.341 1002.130 1000.354 1001.357  999.574  998.427  998.897  997.747  997.269 1004.002  999.501  999.319 1009.370  999.694 1011.767 1000.496 1001.522 1003.994 1000.835 1002.189 1004.926  999.562 1010.184  999.346 1002.394 1003.233  999.398 1003.708 1001.759 1000.916 1014.091 1000.337 1000.276 1001.982 1009.363 1007.746 1004.881 1004.198 1002.814  995.938 
DATE 2015:203:19:31:22 obsn  34 az 246 el 51 freq_MHz  1421.5000 Tsys 182.760 Tant 872.222 vlsr   10.18 glat 25.428 glon 202.190 source Sun 
Fstart 1420.497 fstop 1422.503 spacing 0.009375 bw    2.400 fbw    2.000 MHz nfreq 256 nsam 1048576 npoint 214 integ    79 sigma    0.213 bsw 0
Spectrum 
 975.045  983.318  978.899  981.341  982.568  985.120  983.006  982.384  982.930  982.096  981.922  983.824  993.267  985.625  989.310  991.584  994.618  993.538  991.227  996.719  991.402  993.594  998.976  991.214  994.351  988.689  988.815  991.992  986.544  987.972  987.061  985.081  995.160  983.522  985.318  987.658  985.763  986.614 1009.795  983.515  994.287  985.143  998.284  985.108  988.531  990.715  985.853  989.085  990.334  985.405  989.096  991.861  989.880  995.567  993.628  990.187  991.591  996.222  996.797  988.584  992.180  989.845  990.464 1004.691  992.162  995.785 1006.139  994.284  991.660  989.669  991.818  991.370  991.317  997.362  990.164  990.712  992.154  988.930 1001.683  991.220  989.682  996.754  992.081 1011.677  989.594  992.768 1000.178  994.826 1010.427  993.951  994.881  993.076  993.739  995.188 1001.231  994.308  992.736  996.155  996.103  999.150  994.630  997.282  996.452  994.038  996.956  993.724 1001.593  996.016  995.736 1007.987  993.789  995.856  993.694  995.436  996.177  992.873  993.772  995.097 1001.880 1002.182  993.882  997.920 1004.065  993.793 1007.500  994.357  995.437  997.596  994.307 1001.452  995.166  996.869  997.319  997.184 1005.593 1003.717  995.060  997.138  996.486  999.399 1010.046  995.172  999.444  997.446  997.281 1004.925 1000.262  998.721 1002.742 1003.464 1003.062 1004.398 1003.224  999.583  998.729 1016.519 1004.762 1002.246 1003.448 1004.024 1016.144 1004.034 1003.936 1009.660 1002.958 1022.469 1000.089 1002.168 1004.795 1003.880 1021.202 1001.494 1005.283 1002.451 1000.934 1003.451 1001.608 1002.574 1001.148 1000.030 1000.721  999.386  998.931 1005.489 1001.176 1001.075 1010.986 1001.451 1013.468 1001.943 1002.982 1005.811 1002.243 1003.844 1006.428 1001.051 1011.580 1001.168 1003.870 1004.906 1001.315 1005.281 1003.044 1002.505 1015.361 1002.047 1002.006 1003.508 1010.912 1009.199 1006.248 1005.507 1004.408  997.171 
DATE 2015:203:19:31:35 obsn  35 az 246 el 51 freq_MHz  1421.5000 Tsys 182.760 Tant 876.912 vlsr   10.18 glat 25.428 glon 202.190 source Sun 
Fstart 1420.497 fstop 1422.503 spacing 0.009375 bw    2.400 fbw    2.000 MHz nfreq 256 nsam 1048576 npoint 214 integ    81 sigma    0.210 bsw 0
Spectrum 
 976.675  985.168  980.550  983.009  983.971  986.537  984.434  984.115  984.230  983.490  983.378  985.359  994.545  987.505  990.735  992.576  995.900  995.041  992.713  998.170  992.947  995.082 1000.694  992.744  995.921  990.558  990.451  993.420  988.157  989.687  988.802  986.631  997.053  985.153  986.943  989.032  987.212  988.049 1011.124  985.093  995.744  986.569  999.901  986.649  989.782  992.455  987.585  990.844  991.906  986.768  990.882  993.371  991.286  996.998  995.578  991.593  992.720  997.907  998.224  990.499  994.129  991.339  992.168 1006.024  993.989  997.363 1007.783  995.991  993.372  991.163  993.729  992.761  992.844  998.980  991.685  992.470  993.571  990.719 1003.474  993.100  991.341  998.673  993.754 1013.506  991.060  994.421 1001.638  996.275 1011.951  995.476  996.392  994.706  995.348  996.630 1002.905  995.682  994.226  997.559  997.520 1001.024  996.238  998.587  998.411  995.744  998.640  995.465 1003.050  997.343  997.162 1009.587  995.422  997.574  995.120  997.166  997.561  994.497  995.178  996.853 1003.053 1003.828  995.246  999.233 1005.427  995.342 1009.148  996.182  997.039  999.070  995.909 1003.334  996.969  998.638  999.002  998.622 1007.580 1005.583  996.934  998.445  998.217 1000.959 1011.428  996.604 1001.140  999.138  999.006 1006.479 1001.820 1000.207 1004.175 1005.014 1004.899 1006.421 1004.961 1001.293 1000.355 1018.171 1006.410 1003.928 1004.948 1005.995 1017.700 1005.698 1005.486 1011.265 1004.748 1024.016 1001.503 1004.001 1006.528 1005.167 1022.499 1003.363 1007.072 1004.332 1002.411 1005.147 1002.860 1004.310 1002.828 1001.479 1002.114 1001.022 1000.452 1007.358 1002.831 1002.539 1012.555 1002.671 1014.675 1003.572 1004.634 1007.532 1003.681 1005.632 1008.031 1002.582 1013.237 1002.555 1005.532 1006.396 1003.146 1007.088 1004.896 1004.059 1016.927 1003.430 1003.801 1005.200 1012.439 1011.078 1007.684 1007.138 1005.385  998.354 
DATE 2015:203:19:31:48 obsn  36 az 246 el 51 freq_MHz  1421.5000 Tsys 182.760 Tant 881.141 vlsr   10.18 glat 25.428 glon 202.190 source Sun 
Fstart 1420.497 fstop 1422.503 spacing 0.009375 bw    2.400 fbw    2.000 MHz nfreq 256 nsam 1048576 npoint 214 integ    83 sigma    0.207 bsw 0
Spectrum 
 978.214  986.653  982.259  984.970  985.717  988.185  986.299  985.527  985.227  985.316  984.873  986.977  996.198  989.269  992.193  994.245  997.609  996.749  994.700 1000.046  994.629  996.551 1002.168  994.617  997.891  992.270  991.973  995.414  990.268  991.168  990.443  988.536  998.920  987.003  988.509  990.573  988.960  989.478 1012.915  986.488  996.985  988.295 1001.352  988.026  991.174  994.074  989.376  992.597  993.834  988.481  992.437  994.757  993.040  998.916  997.254  993.156  994.332  999.645  999.592  992.448  996.051  993.020  994.039 1007.585  995.904  999.027 1009.515  997.433  994.989  992.963  995.427  994.612  994.340 1000.873  993.157  994.619  995.417  992.518 1005.150  994.882  993.065 1000.601  995.339 1015.149  992.613  996.042 1003.189  997.814 1013.415  997.485  998.355  996.613  997.121  998.562 1004.559  997.125  995.605  999.656  998.791 1002.553  998.062 1000.161 1000.108  997.621 1000.421  997.048 1004.860  999.174  998.469 1011.000  996.966  999.014  997.042  998.993  999.336  996.304  996.815  998.636 1004.567 1005.452  996.821 1000.706 1006.778  997.009 1011.064  997.918  998.836 1000.649  997.607 1004.779  998.499 1000.084 1000.734 1000.054 1009.014 1007.218  998.646 1000.359  999.834 1002.803 1013.337  998.550 1003.068 1000.987 1000.539 1008.228 1003.339 1002.192 1005.736 1006.961 1006.720 1008.189 1006.664 1003.049 1002.016 1019.819 1008.303 1005.657 1006.347 1007.841 1019.550 1007.544 1007.198 1013.096 1006.113 1025.506 1003.039 1005.396 1007.861 1006.512 1024.222 1004.843 1008.631 1005.931 1004.490 1006.873 1004.592 1005.802 1004.074 1003.506 1004.024 1002.624 1002.205 1008.793 1004.209 1003.882 1014.121 1004.098 1016.108 1005.252 1005.920 1009.230 1004.952 1007.241 1009.987 1004.041 1014.818 1004.294 1007.132 1007.995 1004.943 1009.137 1006.210 1005.497 1018.570 1004.906 1005.971 1006.742 1014.400 1012.880 1009.296 1008.821 1007.093 1000.037 
DATE 2015:203:19:32:02 obsn  37 az 246 el 51 freq_MHz  1421.5000 Tsys 182.760 Tant 884.923 vlsr   10.18 glat 25.429 glon 202.190 source Sun 
Fstart 1420.497 fstop 1422.503 spacing 0.009375 bw    2.400 fbw    2.000 MHz nfreq 256 nsam 1048576 npoint 214 integ    85 sigma    0.204 bsw 0
Spectrum 
 979.873  988.342  983.782  986.706  987.088  989.979  987.870  987.275  986.746  987.010  986.394  988.956  998.116  990.994  993.554  995.734  999.307  998.526  996.294 1001.544  996.175  998.251 1004.095  996.125  999.370  994.015  993.839  996.919  992.297  992.785  992.307  989.956 1000.639  988.650  989.744  991.863  990.501  991.174 1014.747  988.177  998.406  989.950 1002.822  989.832  992.738  995.572  990.858  994.710  995.599  990.257  994.040  996.418  994.800 1000.609  998.930  994.582  995.476 1001.325 1001.309  994.278  997.737  994.493  995.825 1009.042  997.716 1000.497 1011.090  998.945  996.589  994.501  997.029  996.222  995.839 1002.607  995.040  996.062  997.078  994.173 1006.884  996.703  994.948 1002.539  996.893 1016.894  994.306  997.641 1004.966  999.532 1015.096  999.119 1000.028  998.272  998.823 1000.514 1006.362  998.695  997.396 1001.241 1000.769 1004.261  999.542 1001.586 1001.794  999.534 1002.149  998.705 1006.378 1000.478  999.766 1012.526  998.581 1000.822  998.878 1000.653 1000.881  998.037  998.419 1000.302 1006.531 1006.979  998.710 1002.216 1008.688  998.452 1012.659  999.753 1000.772 1002.727  999.387 1006.630 1000.095 1001.556 1002.534 1001.875 1010.639 1009.107 1000.448 1001.789 1001.360 1004.597 1014.936 1000.055 1005.000 1002.665 1002.164 1010.224 1004.867 1003.706 1007.345 1008.517 1008.310 1009.450 1008.322 1004.520 1003.710 1021.708 1010.167 1007.227 1007.971 1009.626 1021.111 1009.210 1008.994 1014.841 1007.720 1027.522 1004.410 1007.040 1009.514 1008.082 1025.822 1006.428 1010.403 1007.237 1006.063 1008.065 1006.196 1006.954 1005.445 1004.921 1005.638 1004.160 1003.775 1010.302 1005.949 1005.653 1015.814 1005.413 1017.822 1006.917 1007.554 1011.371 1006.809 1008.919 1011.569 1005.473 1016.225 1006.043 1008.739 1009.812 1006.425 1011.009 1007.256 1007.016 1020.235 1006.631 1007.464 1007.957 1015.713 1014.671 1010.751 1010.461 1008.559 1001.912 
DATE 2015:203:19:32:16 obsn  38 az 246 el 51 freq_MHz  1421.5000 Tsys 182.760 Tant 895.577 vlsr   10.18 glat 25.429 glon 202.190 source Sun 
Fstart 1420.497 fstop 1422.503 spacing 0.009375 bw    2.400 fbw    2.000 MHz nfreq 256 nsam 1048576 npoint 214 integ    87 sigma    0.202 bsw 0
Spectrum 
 981.788  990.307  985.762  988.462  988.829  991.571  989.360  988.905  988.484  988.788  988.188  991.123  999.692  992.987  995.510  997.362 1001.216 1000.220  997.984 1003.121  998.183  999.895 1006.047  997.822 1001.067  995.490  995.511  998.375  993.729  994.375  994.398  991.729 1002.476  990.632  991.416  993.916  992.229  992.942 1016.948  990.064 1000.554  991.977 1004.657  991.634  994.481  997.255  992.594  996.273  997.561  992.010  995.690  997.887  996.489 1002.385 1000.853  996.056  997.325 1003.096 1003.247  996.065  999.597  996.396  997.366 1010.527  999.362 1002.269 1012.638 1000.822  998.383  996.248  998.617  997.834  997.871 1004.642  996.637  997.523  998.831  995.837 1008.771  998.301  996.738 1003.934  998.403 1018.731  996.052  999.294 1006.599 1001.319 1016.892 1001.039 1001.728  999.959 1000.659 1002.139 1008.254 1000.519  999.231 1003.158 1002.328 1006.134 1001.128 1003.326 1003.825 1001.151 1004.019 1000.427 1008.155 1002.094 1001.717 1014.318 1000.405 1002.722 1000.796 1002.486 1002.562 1000.053 1000.278 1002.194 1008.156 1008.789 1000.340 1003.954 1010.398 1000.211 1014.316 1001.672 1002.313 1004.432 1001.113 1008.509 1001.827 1003.287 1004.199 1003.533 1012.214 1011.201 1002.408 1003.866 1002.881 1006.459 1016.507 1001.541 1006.700 1004.338 1003.917 1011.961 1006.631 1005.570 1009.374 1010.189 1010.126 1011.417 1009.938 1006.396 1005.909 1023.490 1011.775 1009.145 1009.402 1011.560 1022.403 1010.794 1010.728 1016.379 1009.527 1029.196 1006.204 1008.636 1011.284 1009.753 1027.162 1008.040 1012.140 1009.004 1007.788 1009.724 1007.659 1008.839 1007.164 1006.333 1007.324 1005.978 1005.370 1011.904 1007.785 1007.289 1017.110 1007.112 1019.387 1008.640 1009.422 1013.094 1008.352 1010.557 1013.462 1006.925 1017.956 1008.065 1010.527 1011.779 1008.309 1012.313 1008.580 1008.634 1021.995 1008.534 1009.287 1009.542 1017.522 1016.444 1012.567 1012.045 1010.415 1003.569 
DATE 2015:203:19:32:29 obsn  39 az 246 el 51 freq_MHz  1421.5000 Tsys 182.760 Tant 910.734 vlsr   10.18 glat 25.429 glon 202.190 source Sun 
Fstart 1420.497 fstop 1422.503 spacing 0.009375 bw    2.400 fbw    2.000 MHz nfreq 256 nsam 1048576 npoint 214 integ    90 sigma    0.199 bsw 0
Spectrum 
 983.974  992.185  987.688  990.409  990.601  993.392  991.356  990.709  990.562  990.876  990.131  992.803 1001.440  994.653  997.390  999.182 1003.364 1002.344  999.828 1005.170 1000.236 1001.690 1007.965  999.704 1003.026  997.578  997.406 1000.427  995.586  996.311  996.253  993.515 1004.550  992.778  993.523  995.778  993.939  995.244 1019.039  991.889 1002.498  993.724 1006.293  993.725  996.534  999.175  994.592  998.247  999.393  993.946  997.493  999.611  998.390 1004.181 1002.731  997.891  999.055 1004.823 1005.038  998.100 1001.736  998.412  999.406 1011.990 1001.138 1004.335 1014.643 1002.990 1000.261  997.994 1000.429 1000.062  999.609 1006.621  998.611  999.289 1000.840  998.036 1010.629 1000.355  998.870 1005.837 1000.151 1020.568  998.493 1001.146 1008.650 1003.521 1018.412 1003.089 1003.491 1002.160 1002.803 1004.376 1010.357 1002.444 1001.237 1005.144 1003.686 1007.733 1003.048 1005.240 1005.626 1003.485 1006.053 1002.544 1009.898 1004.059 1003.710 1016.279 1002.175 1004.823 1002.889 1004.308 1004.536 1001.801 1002.150 1003.886 1010.181 1010.628 1002.244 1005.808 1011.969 1001.935 1015.989 1003.736 1004.132 1006.115 1002.935 1010.457 1003.735 1005.220 1006.111 1005.177 1014.144 1013.214 1004.294 1005.748 1004.873 1008.520 1018.561 1003.835 1008.426 1006.253 1006.001 1014.010 1008.695 1008.086 1011.349 1011.994 1012.029 1013.533 1011.898 1008.741 1008.054 1025.303 1013.747 1010.786 1011.901 1013.780 1024.319 1012.649 1013.056 1018.277 1011.525 1031.097 1008.136 1010.555 1013.324 1011.319 1029.271 1009.871 1014.109 1010.813 1009.446 1011.398 1009.638 1010.482 1008.977 1008.237 1009.407 1007.955 1007.434 1014.465 1009.817 1008.734 1018.769 1008.851 1020.844 1010.384 1011.318 1015.007 1010.263 1012.554 1015.141 1008.927 1019.604 1009.990 1012.035 1013.643 1010.023 1014.410 1010.407 1010.536 1023.715 1010.382 1011.471 1011.454 1019.376 1018.065 1014.542 1014.223 1012.242 1005.384 
DATE 2015:203:19:32:42 obsn  40 az 246 el 51 freq_MHz  1421.5000 Tsys 182.760 Tant 909.249 vlsr   10.18 glat 25.429 glon 202.190 source Sun 
Fstart 1420.497 fstop 1422.503 spacing 0.009375 bw    2.400 fbw    2.000 MHz nfreq 256 nsam 1048576 npoint 214 integ    92 sigma    0.197 bsw 0
Spectrum 
 985.820  994.217  989.446  992.598  992.624  995.242  992.907  992.575  992.281  992.863  991.853  994.797 1003.434  996.776  999.493 1000.714 1005.442 1004.426 1001.675 1006.858 1002.094 1003.849 1009.776 1001.550 1004.934  999.521  999.124 1002.569  997.370  998.141  998.040  995.646 1006.522  994.747  995.548  997.419  995.873  997.200 1021.076  994.055 1004.710  995.628 1008.380  995.848  998.619 1000.975  996.788 1000.088 1001.538  995.969  999.365 1001.579 1000.253 1006.087 1004.765  999.604 1001.212 1006.649 1007.011  999.733 1003.825 1000.493 1001.529 1014.236 1002.953 1006.448 1016.575 1005.020 1002.560 1000.015 1002.589 1001.869 1001.633 1008.651 1000.334 1001.226 1002.746 1000.081 1012.589 1002.182 1000.574 1007.750 1002.228 1022.804 1000.747 1003.300 1010.711 1005.248 1020.423 1005.273 1005.376 1004.321 1004.882 1006.681 1012.358 1004.469 1003.267 1007.274 1005.630 1009.813 1004.913 1007.482 1007.572 1005.559 1008.287 1004.533 1011.772 1005.885 1005.446 1018.252 1004.421 1006.702 1004.854 1006.194 1006.783 1004.004 1003.999 1005.709 1012.061 1012.661 1004.123 1007.814 1013.552 1004.013 1018.030 1006.008 1005.978 1008.083 1004.905 1012.774 1005.905 1007.359 1008.190 1007.237 1016.426 1015.570 1006.073 1007.403 1007.084 1010.270 1020.211 1005.818 1010.428 1008.078 1008.027 1016.250 1010.778 1010.366 1013.144 1014.221 1014.110 1015.320 1013.529 1010.954 1009.880 1026.953 1015.637 1012.940 1013.604 1015.583 1026.182 1014.586 1014.971 1020.387 1013.718 1032.984 1010.143 1012.459 1014.792 1013.022 1031.268 1011.858 1016.300 1012.708 1011.683 1013.293 1011.938 1012.209 1010.885 1010.302 1011.192 1009.809 1009.690 1016.337 1011.652 1010.826 1020.698 1010.831 1022.859 1012.414 1013.199 1016.808 1012.156 1014.340 1017.045 1010.700 1021.332 1012.082 1014.013 1015.378 1012.292 1016.193 1012.208 1012.253 1025.264 1012.317 1013.181 1013.177 1021.287 1020.118 1016.216 1016.309 1014.224 1007.371 
DATE 2015:203:19:32:58 obsn  41 az 247 el 50 freq_MHz  1421.5000 Tsys 182.760 Tant 708.868 vlsr   10.18 glat 25.429 glon 202.191 source Sun 
Fstart 1420.497 fstop 1422.503 spacing 0.009375 bw    2.400 fbw    2.000 MHz nfreq 256 nsam 1048576 npoint 214 integ    94 sigma    0.195 bsw 0
Spectrum 
 986.989  995.855  990.739  994.125  994.257  996.993  994.677  994.005  993.881  994.088  993.441  996.234 1004.806  998.296 1000.998 1001.975 1006.899 1005.616 1003.473 1008.811 1003.591 1005.599 1011.185 1002.932 1006.326 1000.927 1000.578 1004.117  998.895  999.231  999.601  997.140 1007.783  996.444  997.238  998.711  997.177  998.667 1022.423  995.590 1006.399  997.167 1009.894  997.529 1000.146 1002.600  998.518 1001.594 1002.859  997.452 1001.050 1003.096 1001.416 1007.742 1006.311 1000.970 1002.668 1008.420 1008.552 1000.988 1005.221 1002.126 1002.977 1015.851 1004.250 1007.903 1018.087 1006.618 1003.924 1001.582 1004.109 1003.682 1003.486 1010.069 1002.152 1002.571 1004.137 1001.575 1014.074 1003.444 1002.231 1009.191 1003.689 1023.948 1002.419 1004.672 1012.188 1006.862 1021.790 1006.632 1006.760 1005.933 1006.278 1008.182 1013.856 1005.893 1004.667 1008.913 1007.194 1011.113 1006.511 1009.089 1008.980 1006.838 1009.740 1006.035 1013.371 1007.162 1006.923 1019.604 1006.092 1008.005 1006.469 1007.485 1008.286 1005.546 1005.360 1007.558 1013.426 1014.088 1005.713 1009.535 1015.063 1005.471 1019.396 1007.610 1007.448 1009.481 1006.654 1014.345 1007.373 1008.898 1009.612 1008.814 1018.109 1016.680 1007.272 1009.009 1008.639 1011.676 1021.764 1007.046 1012.167 1009.622 1009.409 1017.829 1012.046 1011.715 1014.803 1015.632 1015.522 1017.113 1014.997 1012.577 1011.556 1028.472 1016.969 1014.457 1014.795 1017.179 1027.278 1016.146 1016.139 1021.679 1015.200 1034.307 1011.543 1013.840 1016.036 1014.243 1032.648 1013.319 1017.755 1014.019 1012.765 1014.828 1013.536 1013.722 1012.334 1011.551 1012.245 1011.243 1011.017 1017.770 1012.906 1012.178 1021.867 1012.284 1024.157 1013.663 1014.493 1018.216 1013.831 1015.667 1018.297 1012.267 1022.643 1013.524 1015.168 1016.920 1013.682 1017.173 1013.439 1013.511 1026.541 1013.847 1014.707 1014.274 1022.582 1021.412 1017.568 1017.587 1015.538 1009.052 
DATE 2015:203:19:33:11 obsn  42 az 247 el 50 freq_MHz  1421.5000 Tsys 182.760 Tant 734.045 vlsr   10.18 glat 25.429 glon 202.191 source Sun 
Fstart 1420.497 fstop 1422.503 spacing 0.009375 bw    2.400 fbw    2.000 MHz nfreq 256 nsam 1048576 npoint 214 integ    96 sigma    0.193 bsw 0
Spectrum 
 984.351  993.569  988.460  991.659  991.876  994.627  992.108  991.330  991.366  991.410  991.011  993.740 1002.349  995.910  998.661  999.497 1004.346 1003.182 1001.325 1006.342 1001.319 1003.356 1008.707 1000.430 1003.870  998.248  998.287 1001.723  996.389  996.739  996.835  994.855 1005.257  994.003  994.776  996.339  994.741  996.145 1020.203  993.032 1003.763  994.727 1007.318  995.184  997.628 1000.163  996.162  999.104 1000.419  995.047  998.487 1000.527  999.137 1005.558 1003.936  998.718 1000.264 1006.017 1005.843  998.488 1003.007  999.897 1000.430 1013.391 1001.878 1005.368 1015.674 1004.098 1001.453  999.326 1001.865 1001.040 1000.855 1007.570  999.682  999.951 1001.824  999.076 1011.498 1000.961  999.784 1006.642 1001.184 1021.436  999.849 1002.202 1009.820 1004.466 1019.151 1004.133 1004.166 1003.518 1003.910 1005.777 1011.160 1003.119 1002.127 1006.514 1004.517 1008.802 1004.115 1006.631 1006.493 1004.267 1007.540 1003.552 1011.120 1004.441 1004.152 1016.935 1003.391 1005.611 1003.877 1004.963 1005.798 1003.008 1003.034 1004.973 1011.084 1011.606 1003.223 1007.134 1012.665 1003.008 1016.796 1005.102 1004.998 1006.869 1003.929 1011.517 1004.916 1006.185 1007.253 1006.323 1015.390 1013.762 1004.570 1006.407 1005.992 1009.025 1019.311 1004.432 1009.461 1007.090 1006.837 1015.329 1009.741 1009.017 1012.340 1013.060 1012.847 1014.433 1012.346 1010.086 1009.033 1026.007 1014.340 1011.718 1012.244 1014.508 1024.828 1013.740 1013.492 1019.003 1012.458 1031.498 1009.031 1011.237 1013.571 1011.744 1030.013 1010.522 1014.980 1011.412 1009.906 1012.213 1011.058 1011.081 1009.802 1008.717 1009.543 1008.824 1008.448 1015.087 1010.323 1009.483 1019.138 1009.625 1021.715 1010.953 1011.946 1015.669 1011.098 1013.027 1015.600 1009.786 1020.119 1011.246 1012.439 1014.235 1011.137 1014.511 1010.976 1010.760 1023.832 1011.213 1012.097 1011.563 1019.860 1018.649 1014.738 1015.077 1012.739 1006.099 
DATE 2015:203:19:33:25 obsn  43 az 247 el 50 freq_MHz  1421.5000 Tsys 182.760 Tant 738.894 vlsr   10.18 glat 25.429 glon 202.191 source Sun 
Fstart 1420.497 fstop 1422.503 spacing 0.009375 bw    2.400 fbw    2.000 MHz nfreq 256 nsam 1048576 npoint 214 integ    98 sigma    0.190 bsw 0
Spectrum 
 982.474  991.438  986.371  989.515  989.896  992.726  990.298  989.168  989.529  989.420  989.153  991.869 1000.528  994.014  996.923  997.557 1002.140 1001.050  999.376 1004.449  999.531 1001.458 1006.627  998.287 1001.668  996.496  996.252  999.831  994.480  994.692  994.863  992.672 1003.475  992.135  993.080  994.391  993.011  994.116 1018.133  991.238 1001.680  992.936 1005.486  993.288  995.688  997.973  994.450  997.104  998.519  992.932  996.605  998.493  996.979 1003.722 1002.013  996.794  998.106 1004.102 1003.813  996.382 1001.048  998.002  998.411 1011.699  999.887 1003.774 1013.594 1002.387  999.469  997.261 1000.017  998.874  998.718 1005.698  997.663  998.085  999.864  997.062 1009.624  999.173  997.756 1004.514  999.200 1019.468  997.923 1000.026 1008.046 1002.278 1017.197 1002.155 1002.116 1001.501 1001.832 1003.744 1009.221 1000.995  999.964 1004.158 1002.518 1006.941 1002.193 1004.471 1004.412 1002.278 1005.551 1001.414 1009.196 1002.570 1001.843 1014.810 1001.177 1003.522 1002.117 1003.252 1003.676 1001.210 1000.966 1002.701 1008.889 1009.606 1001.072 1005.138 1010.900 1001.122 1014.714 1003.061 1002.865 1004.815 1001.854 1009.379 1002.681 1003.907 1005.345 1004.217 1013.372 1011.589 1002.578 1004.403 1004.040 1007.043 1017.276 1002.663 1007.429 1005.272 1005.018 1013.088 1007.547 1007.249 1010.421 1010.942 1010.981 1012.148 1010.396 1008.216 1007.097 1024.071 1012.472 1009.487 1010.080 1012.631 1022.794 1011.468 1011.533 1016.970 1010.219 1029.402 1007.101 1009.579 1011.527 1009.816 1027.881 1008.411 1013.015 1009.137 1007.831 1010.185 1008.990 1008.947 1007.539 1006.743 1007.518 1006.463 1006.095 1013.170 1008.092 1007.180 1016.799 1007.478 1019.412 1008.610 1009.630 1013.547 1008.882 1010.803 1013.600 1007.915 1018.010 1009.164 1010.099 1012.128 1008.961 1012.442 1008.701 1008.673 1021.672 1008.908 1010.005 1009.547 1017.918 1016.563 1012.458 1013.123 1010.763 1003.948 
DATE 2015:203:19:33:38 obsn  44 az 247 el 50 freq_MHz  1421.5000 Tsys 182.760 Tant 759.384 vlsr   10.18 glat 25.429 glon 202.191 source Sun 
Fstart 1420.497 fstop 1422.503 spacing 0.009375 bw    2.400 fbw    2.000 MHz nfreq 256 nsam 1048576 npoint 214 integ   100 sigma    0.188 bsw 0
Spectrum 
 980.916  989.724  984.927  987.759  988.386  991.255  988.574  987.686  987.884  987.875  987.572  990.450  998.903  992.540  995.394  996.117 1000.707  999.392  997.565 1002.568  997.972  999.851 1004.960  996.785 1000.034  995.006  994.560  998.038  992.871  993.291  993.283  991.171 1001.533  990.474  991.307  992.696  991.178  992.528 1016.737  989.797 1000.143  991.114 1003.622  991.682  994.134  996.250  992.898  995.529  996.905  991.464  995.111  996.693  995.692 1002.288 1000.362  994.931  996.463 1002.669 1002.065  994.816  999.487  996.408  996.863 1009.874  998.304 1001.961 1011.977 1000.929  997.842  995.620  998.314  997.144  996.867 1004.146  995.972  996.562  998.259  995.538 1007.799  997.439  996.195 1002.940  997.517 1017.940  996.528  998.444 1006.228 1000.571 1015.511 1000.466 1000.265  999.607 1000.213 1002.141 1007.566  999.390  998.568 1002.707 1000.819 1005.140 1000.484 1002.544 1002.879 1000.370 1004.088  999.760 1007.550 1000.625 1000.260 1013.284  999.455 1002.069 1000.274 1001.673 1001.997  999.701  999.641 1000.980 1007.160 1007.960  999.359 1003.421 1009.309  999.607 1013.246 1001.370 1001.183 1003.495 1000.338 1007.659 1001.145 1002.338 1003.769 1002.467 1011.560 1009.981 1000.827 1002.884 1002.335 1005.461 1015.542 1001.176 1005.682 1003.528 1003.438 1011.336 1005.841 1005.557 1008.755 1009.073 1009.278 1010.570 1008.858 1006.798 1005.625 1022.337 1010.827 1007.960 1008.150 1010.803 1021.196 1009.750 1009.650 1015.374 1008.520 1027.530 1005.282 1008.011 1010.065 1008.126 1025.859 1006.769 1011.244 1007.367 1006.201 1008.391 1007.318 1007.250 1005.719 1004.985 1005.968 1004.832 1004.229 1011.456 1006.034 1005.539 1015.254 1005.857 1017.670 1006.960 1007.875 1011.668 1006.949 1008.774 1011.740 1006.095 1016.404 1007.489 1007.957 1010.200 1007.307 1010.788 1006.987 1007.005 1020.052 1007.254 1008.245 1007.817 1016.382 1014.897 1010.569 1011.343 1009.146 1002.038 
DATE 2015:203:19:33:52 obsn  45 az 247 el 50 freq_MHz  1421.5000 Tsys 182.760 Tant 773.462 vlsr   10.18 glat 25.430 glon 202.191 source Sun 
Fstart 1420.497 fstop 1422.503 spacing 0.009375 bw    2.400 fbw    2.000 MHz nfreq 256 nsam 1048576 npoint 214 integ   103 sigma    0.186 bsw 0
Spectrum 
 979.939  988.381  983.812  986.369  986.923  990.082  987.180  986.420  986.612  986.622  986.177  988.961  997.611  991.621  994.233  995.024  999.437  998.186  996.451 1001.202  996.572  998.563 1003.773  995.501  999.000  993.972  993.199  996.864  991.386  991.924  992.114  989.790 1000.215  989.255  990.056  991.269  989.967  991.359 1015.829  988.556  998.852  989.871 1002.342  990.240  992.971  995.139  991.603  994.519  995.664  990.112  993.883  995.527  994.682 1001.053  999.093  993.745  995.265 1001.232 1000.916  993.528  998.108  995.112  995.572 1008.517  996.998 1000.762 1010.829  999.608  996.353  994.221  997.011  996.052  995.785 1002.856  995.002  995.309  996.886  994.448 1006.546  996.149  995.188 1001.727  996.188 1016.520  995.274  997.211 1004.972  999.144 1013.977  999.158  998.902  998.458  998.708 1000.912 1006.416  997.706  997.125 1001.111  999.642 1003.683  999.212 1001.319 1001.589  998.954 1002.726  998.616 1006.171  999.076  999.117 1011.894  998.038 1000.737  999.048 1000.259 1000.594  998.664  998.221  999.853 1005.901 1006.805  998.151 1001.844 1007.999  998.398 1011.930 1000.038  999.697 1002.216  999.002 1006.316  999.746 1000.713 1002.205 1001.005 1010.266 1008.494  999.546 1001.622 1000.783 1003.986 1014.138  999.702 1003.980 1002.323 1001.979 1009.942 1004.365 1004.227 1007.332 1007.840 1007.958 1009.129 1007.378 1005.547 1004.127 1021.071 1009.374 1006.412 1006.737 1009.640 1019.811 1008.635 1008.481 1013.901 1007.065 1026.153 1003.918 1006.618 1008.786 1006.772 1024.607 1005.537 1009.685 1006.409 1004.970 1007.131 1006.099 1005.807 1004.389 1003.539 1004.473 1003.591 1002.789 1009.964 1004.465 1004.484 1013.704 1004.676 1016.117 1005.559 1006.452 1010.291 1005.651 1007.519 1010.497 1004.916 1015.012 1006.126 1006.462 1008.661 1006.094 1009.160 1005.840 1005.433 1018.841 1005.882 1006.659 1006.258 1015.144 1013.491 1008.994 1009.928 1007.932 1000.701 
DATE 2015:203:19:34:05 obsn  46 az 247 el 50 freq_MHz  1421.5000 Tsys 182.760 Tant 758.157 vlsr   10.18 glat 25.430 glon 202.191 source Sun 
Fstart 1420.497 fstop 1422.503 spacing 0.009375 bw    2.400 fbw    2.000 MHz nfreq 256 nsam 1048576 npoint 214 integ   105 sigma    0.184 bsw 0
Spectrum 
 978.674  987.155  982.581  985.254  985.664  989.062  985.941  985.136  985.089  985.512  984.672  987.878  996.124  990.292  992.708  993.324  998.034  996.951  995.025  999.796  995.167  997.273 1002.259  994.190  997.781  992.823  991.750  995.760  990.168  990.614  990.619  988.673  998.945  987.929  988.640  990.002  988.596  989.974 1014.572  987.427  997.625  988.520 1001.103  989.099  991.674  993.677  990.456  993.260  994.309  988.685  992.624  994.223  993.309  999.750  997.785  992.429  993.938 1000.217  999.644  992.438  996.731  993.913  994.344 1007.110  995.233  999.455 1009.577  998.287  995.042  993.107  995.680  994.716  994.462 1001.660  993.664  993.933  995.738  992.989 1005.108  994.814  993.679 1000.405  994.950 1015.087  993.937  995.928 1003.540  998.058 1012.701  997.721  997.470  997.147  997.373  999.775 1005.229  996.302  995.735  999.868  998.324 1002.535  998.072  999.885 1000.350  997.399 1001.279  997.261 1004.888  997.562  997.577 1010.846  996.950  999.683  997.681  999.193  999.357  997.317  996.955  998.681 1004.475 1005.398  996.994 1000.533 1006.759  997.295 1010.733  998.725  998.390 1000.753  997.669 1005.332  998.667  999.263 1000.780  999.533 1009.039 1007.241  998.295 1000.105  999.419 1002.670 1012.759  998.436 1002.711 1001.140 1000.730 1008.539 1003.043 1002.861 1006.092 1006.607 1006.510 1007.941 1006.085 1004.163 1002.877 1019.725 1008.175 1005.163 1005.314 1008.282 1018.531 1007.210 1007.140 1012.416 1005.538 1024.570 1002.477 1005.209 1007.728 1005.313 1023.164 1004.414 1008.361 1005.235 1003.416 1005.783 1004.903 1004.376 1002.845 1002.426 1002.927 1002.238 1001.636 1008.619 1003.082 1003.086 1012.557 1003.533 1014.916 1004.483 1005.188 1008.552 1004.157 1005.953 1009.212 1003.416 1013.809 1004.906 1005.248 1007.559 1004.667 1007.680 1004.483 1004.063 1017.458 1004.620 1005.183 1004.940 1013.801 1011.885 1007.485 1008.438 1006.681  999.569 
DATE 2015:203:19:34:19 obsn  47 az 247 el 50 freq_MHz  1421.5000 Tsys 182.760 Tant 792.557 vlsr   10.18 glat 25.430 glon 202.191 source Sun 
Fstart 1420.497 fstop 1422.503 spacing 0.009375 bw    2.400 fbw    2.000 MHz nfreq 256 nsam 1048576 npoint 214 integ   107 sigma    0.182 bsw 0
Spectrum 
 977.630  986.351  981.535  984.134  984.726  988.230  984.895  983.835  984.152  984.535  983.588  986.887  994.880  988.971  991.745  992.327  996.756  996.034  993.993  998.620  993.961  996.145 1001.167  993.270  996.684  991.615  990.856  994.847  989.082  989.733  989.570  987.911  998.055  986.988  987.755  989.086  987.722  989.107 1013.659  986.488  996.815  987.297 1000.158  987.978  990.674  992.588  989.508  992.071  993.201  987.476  991.414  993.127  992.269  998.774  996.835  991.437  993.019  999.400  998.528  991.506  995.743  992.810  993.333 1006.045  994.121  998.604 1008.501  997.338  994.176  991.926  994.774  993.691  993.285 1000.707  992.790  993.005  994.941  991.963 1003.797  993.911  992.656  999.355  994.003 1014.109  992.870  994.845 1002.614  997.087 1011.670  996.898  996.613  996.152  996.311  998.688 1004.377  995.354  994.818  998.732  997.283 1001.506  996.966  998.809  999.124  996.351 1000.181  996.406 1003.781  996.572  996.595 1009.907  995.999  998.505  996.825  998.129  998.219  996.282  995.925  997.792 1003.665 1004.182  995.982  999.488 1005.315  996.252 1009.630  997.782  997.222  999.514  996.731 1004.443  997.639  998.188  999.716  998.655 1007.993 1006.285  997.304  999.185  998.750 1001.809 1011.507  997.349 1001.681 1000.161  999.547 1007.384 1002.265 1001.787 1005.099 1005.491 1005.525 1006.843 1005.044 1002.980 1001.975 1018.664 1006.979 1004.293 1004.246 1007.116 1017.401 1006.319 1006.213 1011.435 1004.295 1023.411 1001.463 1004.345 1006.408 1004.201 1022.015 1003.334 1007.319 1003.962 1002.309 1004.814 1003.926 1003.212 1001.696 1001.501 1001.863 1001.121 1000.624 1007.720 1001.884 1002.020 1011.429 1002.289 1013.788 1003.263 1004.084 1007.656 1003.167 1004.990 1008.385 1002.531 1012.622 1003.670 1004.160 1006.573 1003.659 1006.673 1003.275 1003.012 1016.394 1003.453 1003.947 1003.797 1012.654 1010.732 1006.704 1007.418 1005.719  998.480 
DATE 2015:203:19:34:32 obsn  48 az 247 el 50 freq_MHz  1421.5000 Tsys 182.760 Tant 783.265 vlsr   10.18 glat 25.430 glon 202.191 source Sun 
Fstart 1420.497 fstop 1422.503 spacing 0.009375 bw    2.400 fbw    2.000 MHz nfreq 256 nsam 1048576 npoint 214 integ   109 sigma    0.181 bsw 0
Spectrum 
 977.085  985.762  980.875  983.512  984.163  987.625  984.209  983.490  983.541  983.958  982.887  986.273  994.157  988.290  990.996  991.544  996.308  995.463  993.281  997.970  993.239  995.616 1000.477  992.404  995.990  990.900  990.037  994.153  988.368  989.131  988.871  987.507  997.474  986.502  986.993  988.318  986.970  988.546 1013.077  985.872  996.288  986.525  999.381  987.222  990.005  992.120  988.996  991.462  992.637  986.871  990.629  992.608  991.657  998.092  996.160  990.883  992.533  998.554  997.711  990.953  995.067  992.145  992.859 1005.495  993.665  997.833 1007.690  996.555  993.606  991.311  994.091  993.099  992.727 1000.191  991.930  992.293  994.251  991.420 1003.376  993.247  991.929  998.721  993.526 1013.683  992.196  994.286 1002.060  996.478 1010.909  996.390  995.975  995.357  995.585  998.007 1003.678  994.589  994.069  998.129  996.390 1000.678  996.324  998.223  998.143  995.566  999.508  995.715 1003.219  996.113  995.753 1009.327  995.217  998.027  996.049  997.568  997.606  995.717  995.233  997.165 1003.141 1003.503  995.510  998.807 1004.405  995.475 1009.003  997.013  996.494  998.764  996.101 1004.076  996.981  997.620  999.366  997.915 1007.159 1005.549  996.762  998.401  997.927 1001.204 1010.852  996.758 1000.965  999.617  998.878 1006.860 1001.606 1001.210 1004.354 1004.808 1004.673 1006.142 1004.307 1002.206 1001.256 1018.129 1006.372 1003.711 1003.431 1006.257 1017.008 1005.702 1005.357 1011.029 1003.704 1022.695 1000.627 1003.688 1005.717 1003.874 1021.370 1002.635 1006.970 1003.252 1001.435 1004.004 1003.025 1002.595 1001.014 1000.955 1001.242 1000.480  999.973 1007.262 1001.295 1001.320 1010.692 1001.709 1012.993 1002.583 1003.510 1006.956 1002.483 1004.365 1007.965 1002.034 1011.808 1002.923 1003.587 1005.752 1002.867 1006.101 1002.663 1002.337 1015.814 1002.873 1003.305 1003.266 1011.859 1009.983 1006.135 1006.856 1004.843  997.944 
DATE 2015:203:19:34:45 obsn  49 az 247 el 50 freq_MHz  1421.5000 Tsys 182.760 Tant 809.494 vlsr   10.18 glat 25.430 glon 202.191 source Sun 
Fstart 1420.497 fstop 1422.503 spacing 0.009375 bw    2.400 fbw    2.000 MHz nfreq 256 nsam 1048576 npoint 214 integ   111 sigma    0.179 bsw 0
Spectrum 
 976.709  985.335  980.421  982.991  983.590  987.041  983.988  983.291  983.232  983.752  982.540  986.044  993.851  987.844  990.484  991.193  995.912  995.179  992.597  997.580  992.723  995.246 1000.349  992.073  995.580  990.487  989.585  993.865  987.995  988.715  988.384  987.211  997.203  986.101  986.550  987.846  986.561  988.248 1012.674  985.474  995.780  985.984  999.082  986.848  989.500  991.933  988.544  991.040  992.160  986.635  990.133  992.103  991.012  997.863  995.752  990.587  992.071  997.998  997.292  990.641  994.644  991.736  992.093 1005.190  993.275  997.342 1007.262  996.046  993.214  990.752  993.886  992.642  992.507  999.735  991.570  991.854  993.792  991.080 1002.877  992.808  991.445  998.325  993.319 1013.051  991.660  993.869 1001.679  996.031 1010.505  995.964  995.560  994.977  995.023  997.733 1003.248  994.263  993.813  997.821  995.702 1000.221  995.978  997.657  997.972  995.024  999.112  995.230 1002.582  995.781  995.423 1009.120  995.012  997.713  995.838  997.308  997.249  995.111  994.986  996.760 1002.637 1002.967  994.871  998.458 1003.988  995.104 1008.565  996.599  996.037  998.259  995.525 1003.503  996.518  997.146  998.803  997.547 1006.584 1005.005  996.252  998.017  997.657 1000.777 1010.461  996.462 1000.661  999.138  998.587 1006.378 1001.171 1000.913 1003.990 1004.393 1004.337 1005.697 1003.919 1001.802 1000.986 1017.788 1005.853 1002.990 1002.814 1005.690 1016.569 1004.990 1004.818 1010.613 1003.181 1022.594 1000.361 1003.434 1005.428 1003.338 1021.066 1002.521 1006.830 1002.828 1001.168 1003.606 1002.840 1002.160 1000.684 1000.330 1000.757  999.930  999.517 1006.792 1000.891 1000.818 1010.340 1001.383 1012.556 1002.180 1003.222 1006.657 1002.210 1004.034 1007.536 1001.703 1011.381 1002.718 1003.174 1005.351 1002.410 1005.705 1002.354 1002.253 1015.511 1002.468 1002.996 1003.077 1011.438 1009.479 1005.971 1006.492 1004.260  997.586 
DATE 2015:203:19:34:59 obsn  50 az 247 el 50 freq_MHz  1421.5000 Tsys 182.760 Tant 810.772 vlsr   10.18 glat 25.430 glon 202.191 source Sun 
Fstart 1420.497 fstop 1422.503 spacing 0.009375 bw    2.400 fbw    2.000 MHz nfreq 256 nsam 1048576 npoint 214 integ   114 sigma    0.177 bsw 0
Spectrum 
 976.742  985.235  980.089  982.814  983.304  986.866  983.925  983.198  983.295  983.750  982.533  985.930  993.787  987.598  990.224  991.084  995.825  995.167  992.514  997.647  992.656  995.177 1000.045  991.951  995.374  990.475  989.415  993.860  987.697  988.432  988.528  987.225  997.058  986.009  986.467  987.614  986.250  988.266 1012.460  985.636  995.785  985.799  998.938  986.755  989.481  991.919  988.573  990.877  992.046  986.265  989.956  992.196  991.240  997.762  995.691  990.689  991.928  998.019  997.186  990.627  994.699  991.600  992.082 1005.234  992.944  997.447 1007.250  996.248  993.147  990.728  993.956  992.628  992.565  999.812  991.570  991.873  993.462  990.998 1002.679  992.827  991.373  998.209  993.111 1012.860  991.378  993.912 1001.676  996.106 1010.702  995.579  995.574  994.873  994.950  997.878 1003.328  994.192  993.596  997.879  995.673 1000.119  995.714  997.403  997.976  995.128  999.186  995.408 1002.534  995.481  995.573 1009.109  994.982  997.675  995.949  997.294  997.216  995.255  994.799  996.799 1002.651 1002.811  994.817  998.369 1004.044  994.915 1008.583  996.682  996.090  998.305  995.381 1003.466  996.582  996.989  998.918  997.362 1006.509 1004.908  996.020  997.930  997.421 1000.529 1010.516  996.335 1000.637  998.857  998.661 1006.282 1000.870 1000.769 1003.712 1004.312 1004.269 1005.455 1004.096 1001.972 1001.030 1017.686 1005.468 1003.182 1002.547 1005.613 1016.222 1004.794 1004.659 1010.326 1003.268 1022.467 1000.316 1003.378 1005.341 1003.319 1020.878 1002.408 1006.721 1002.797 1001.234 1003.533 1002.902 1001.861 1000.883 1000.211 1000.740  999.826  999.484 1006.874 1000.777 1001.021 1010.547 1001.223 1012.205 1002.186 1003.275 1006.550 1002.208 1003.789 1007.386 1001.733 1011.212 1002.570 1003.168 1005.324 1002.486 1005.596 1002.503 1002.100 1015.463 1002.448 1002.888 1002.648 1011.171 1009.081 1005.811 1006.530 1004.030  997.518 
DATE 2015:203:19:35:13 obsn  51 az 247 el 50 freq_MHz  1421.5000 Tsys 182.760 Tant 832.596 vlsr   10.18 glat 25.430 glon 202.191 source Sun 
Fstart 1420.497 fstop 1422.503 spacing 0.009375 bw    2.400 fbw    2.000 MHz nfreq 256 nsam 1048576 npoint 214 integ   116 sigma    0.175 bsw 0
Spectrum 
 976.813  985.208  980.314  982.917  983.391  986.983  983.838  983.227  983.482  983.831  982.637  986.114  993.851  987.797  990.334  991.045  996.155  995.430  992.447  997.898  992.700  995.404 1000.117  991.866  995.313  990.883  989.549  994.054  988.125  988.688  988.854  987.418  997.243  986.061  986.526  987.595  986.486  988.268 1012.596  985.925  995.814  985.943  998.936  987.103  989.482  992.017  988.549  991.093  992.109  986.401  990.120  992.262  991.523  998.002  996.083  990.898  992.144  998.251  997.222  990.780  994.898  991.669  992.172 1005.230  993.160  997.558 1007.403  996.564  993.218  991.107  994.177  992.699  992.893  999.977  991.791  992.160  993.411  991.230 1002.697  992.873  991.567  998.280  993.327 1012.928  991.517  994.253 1001.592  996.233 1010.582  995.724  995.514  995.090  994.945  997.980 1003.419  994.390  993.539  997.799  995.820 1000.146  995.798  997.740  998.160  995.215  999.376  995.630 1002.489  995.627  995.761 1009.411  995.304  998.102  996.102  997.321  997.255  995.094  995.057  996.928 1002.775 1002.902  995.299  998.533 1004.186  995.040 1008.785  996.873  996.073  998.607  995.343 1003.763  996.940  997.243  999.069  997.541 1006.746 1005.043  996.041  998.110  997.448 1000.661 1010.472  996.480 1000.520  999.307  998.734 1006.504 1000.768 1000.759 1003.749 1004.630 1004.582 1005.652 1004.357 1002.193 1000.994 1017.777 1005.807 1003.432 1002.668 1005.670 1016.371 1004.944 1004.887 1010.332 1003.394 1022.786 1000.450 1003.429 1005.423 1003.457 1021.027 1002.534 1006.659 1002.836 1001.220 1003.544 1002.877 1001.868 1001.002 1000.338 1001.023  999.845  999.603 1007.011 1000.942 1001.049 1010.652 1001.391 1012.229 1002.383 1003.327 1006.574 1002.446 1003.855 1007.368 1002.014 1011.514 1002.666 1003.196 1005.497 1002.622 1005.715 1002.693 1002.273 1015.518 1002.660 1002.889 1002.836 1011.287 1009.228 1005.780 1006.653 1004.212  997.578 
DATE 2015:203:19:35:27 obsn  52 az 247 el 50 freq_MHz  1421.5000 Tsys 182.760 Tant 845.874 vlsr   10.18 glat 25.430 glon 202.192 source Sun 
Fstart 1420.497 fstop 1422.503 spacing 0.009375 bw    2.400 fbw    2.000 MHz nfreq 256 nsam 1048576 npoint 214 integ   118 sigma    0.174 bsw 0
Spectrum 
 977.402  985.795  980.808  983.647  983.918  987.346  984.273  983.733  984.126  984.293  983.437  986.576  994.663  988.492  990.884  991.509  996.850  996.022  992.959  998.529  993.546  996.149 1000.789  992.467  996.008  991.404  990.161  994.883  988.525  989.064  989.399  988.016  997.775  986.568  987.007  988.221  987.152  988.752 1013.361  986.779  996.524  986.368  999.488  987.761  990.124  992.444  989.304  991.574  992.909  987.123  990.681  992.975  992.168  998.502  996.491  991.206  992.741  998.800  997.724  991.302  995.457  992.268  992.633 1005.654  993.787  998.059 1008.173  997.411  993.704  991.736  995.025  993.174  993.508 1000.599  992.337  992.833  993.879  991.864 1003.247  993.506  992.265  998.754  993.925 1013.388  992.105  994.888 1002.286  996.718 1011.005  996.465  996.041  995.670  995.406  998.720 1004.005  994.950  994.109  998.512  996.314 1000.829  996.518  998.279  998.766  995.834  999.868  996.313 1003.388  996.577  996.414 1010.054  995.888  998.590  996.747  997.741  997.722  995.870  995.685  997.375 1003.188 1003.493  995.941  999.311 1004.883  995.701 1009.326  997.651  996.848  999.311  996.022 1004.485  997.529  997.823  999.622  998.011 1007.430 1005.589  996.692  998.752  998.092 1001.385 1011.035  997.151 1001.136  999.947  999.418 1007.321 1001.415 1001.315 1004.653 1005.310 1005.188 1006.258 1004.734 1002.799 1001.501 1018.268 1006.531 1004.116 1003.507 1006.324 1017.030 1005.176 1005.632 1011.098 1003.904 1023.326 1001.477 1004.116 1005.989 1004.025 1021.528 1003.255 1007.264 1003.479 1001.889 1004.055 1003.127 1002.431 1001.729 1001.240 1001.674 1000.627 1000.086 1007.628 1001.500 1001.771 1011.334 1001.814 1012.812 1002.871 1003.723 1007.127 1002.980 1004.483 1007.810 1002.548 1011.980 1003.029 1003.813 1006.130 1003.321 1006.182 1003.299 1002.636 1016.439 1003.215 1003.553 1003.569 1011.970 1009.904 1006.397 1007.244 1004.636  998.181 
DATE 2015:203:19:35:40 obsn  53 az 247 el 50 freq_MHz  1421.5000 Tsys 182.760 Tant 862.439 vlsr   10.18 glat 25.431 glon 202.192 source Sun 
Fstart 1420.497 fstop 1422.503 spacing 0.009375 bw    2.400 fbw    2.000 MHz nfreq 256 nsam 1048576 npoint 214 integ   120 sigma    0.172 bsw 0
Spectrum 
 978.056  986.488  981.470  984.177  984.492  987.903  985.198  984.214  984.804  985.159  984.376  987.360  995.499  989.268  991.780  992.506  997.469  996.839  993.836  999.304  994.457  996.914 1001.564  993.296  996.759  992.430  990.987  995.619  989.420  989.539  990.272  988.967  998.479  987.359  987.663  988.856  987.991  989.451 1013.961  987.405  997.319  987.044 1000.290  988.445  990.726  993.050  990.159  992.087  993.730  987.796  991.280  993.647  992.973  999.172  997.277  992.075  993.619  999.658  998.339  992.235  996.278  993.109  993.599 1006.066  994.663  998.788 1008.749  998.187  994.529  992.504  995.754  993.867  994.151 1001.392  993.062  993.651  994.762  992.643 1003.991  994.419  992.960  999.204  994.714 1014.312  992.951  995.650 1003.180  997.502 1011.695  997.193  996.738  996.542  996.039  999.519 1004.803  995.651  994.863  999.353  996.888 1001.423  997.184  999.027  999.666  996.707 1000.627  996.979 1004.171  997.364  997.134 1011.169  996.784  999.477  997.374  998.326  998.367  996.624  996.391  997.854 1003.799 1004.192  996.904 1000.074 1005.588  996.537 1009.845  998.334  997.404 1000.033  996.612 1005.325  998.439  998.460 1000.254  998.667 1008.183 1006.262  997.518  999.706  998.836 1001.822 1011.806  997.929 1001.769 1000.516 1000.498 1008.172 1002.207 1002.102 1005.571 1006.190 1005.906 1007.082 1005.375 1003.521 1002.188 1018.931 1007.317 1004.782 1004.420 1007.073 1017.960 1005.813 1006.198 1011.891 1004.553 1024.004 1002.166 1004.914 1006.797 1004.842 1022.327 1003.876 1008.205 1004.255 1002.551 1004.740 1003.663 1003.169 1002.494 1001.889 1002.361 1001.481 1000.857 1008.416 1002.194 1002.304 1011.966 1002.617 1013.413 1003.469 1004.254 1007.806 1003.513 1004.995 1008.676 1003.201 1012.593 1003.597 1004.637 1006.924 1004.063 1006.742 1003.819 1003.229 1017.013 1003.858 1004.182 1004.304 1012.685 1010.677 1007.261 1008.080 1005.353  998.765 
DATE 2015:203:19:35:54 obsn  54 az 247 el 50 freq_MHz  1421.5000 Tsys 182.760 Tant 880.479 vlsr   10.18 glat 25.431 glon 202.192 source Sun 
Fstart 1420.497 fstop 1422.503 spacing 0.009375 bw    2.400 fbw    2.000 MHz nfreq 256 nsam 1048576 npoint 214 integ   122 sigma    0.171 bsw 0
Spectrum 
 978.852  987.325  982.458  985.038  985.374  989.086  986.260  985.112  985.929  986.176  985.437  988.241  996.377  990.470  992.755  993.551  998.386  997.905  994.757 1000.041  995.513  997.604 1002.530  994.349  997.622  993.283  992.089  996.682  990.428  990.329  991.188  989.853  999.241  988.386  988.735  989.974  988.990  990.407 1015.113  988.399  998.371  987.925 1001.385  989.184  991.859  994.050  991.234  993.184  994.763  988.836  992.139  994.474  993.789 1000.105  998.244  993.086  994.669 1000.749  999.462  993.339  997.329  993.943  994.731 1006.986  995.597  999.787 1009.810  999.237  995.564  993.601  997.065  994.902  995.099 1002.449  994.152  994.651  995.675  993.745 1004.754  995.441  993.941 1000.326  995.846 1015.321  994.073  996.583 1004.209  998.380 1012.556  998.138  997.772  997.381  997.017 1000.693 1005.896  996.372  995.931 1000.325  997.677 1002.193  998.284 1000.269 1000.668  997.825 1001.752  997.895 1005.008  998.403  998.152 1012.030  997.673 1000.459  998.431  999.459  999.585  997.613  997.398  998.809 1004.726 1005.050  997.884 1001.022 1006.622  997.613 1010.776  999.544  998.529 1001.095  997.590 1006.338  999.461  999.734 1001.172  999.635 1009.247 1007.329  998.451 1000.424  999.908 1002.743 1012.569  999.018 1003.051 1001.548 1001.357 1009.345 1003.075 1002.999 1006.320 1007.067 1006.955 1008.179 1006.164 1004.530 1003.298 1019.933 1008.390 1005.796 1005.345 1008.111 1018.867 1006.638 1007.034 1012.897 1005.509 1024.936 1003.119 1006.059 1007.717 1005.844 1023.271 1004.834 1009.236 1004.910 1003.482 1005.465 1004.661 1004.241 1003.279 1002.835 1003.290 1002.331 1001.951 1009.204 1003.215 1003.154 1012.899 1003.563 1014.314 1004.454 1005.027 1008.490 1004.206 1005.993 1009.721 1004.030 1013.109 1004.490 1005.624 1007.921 1004.989 1007.781 1004.698 1004.279 1017.786 1004.852 1005.051 1005.354 1013.587 1011.764 1007.958 1008.877 1006.539  999.952 
DATE 2015:203:19:36:07 obsn  55 az 247 el 50 freq_MHz  1421.5000 Tsys 182.760 Tant 886.153 vlsr   10.18 glat 25.431 glon 202.192 source Sun 
Fstart 1420.497 fstop 1422.503 spacing 0.009375 bw    2.400 fbw    2.000 MHz nfreq 256 nsam 1048576 npoint 214 integ   125 sigma    0.169 bsw 0
Spectrum 
 979.916  988.383  983.698  986.308  986.477  990.100  987.200  985.871  986.744  987.399  986.507  989.345  997.353  991.604  993.729  994.772  999.415  998.875  995.720 1001.044  996.632  998.405 1003.758  995.582  998.734  994.316  993.120  997.648  991.664  991.377  992.086  990.876 1000.299  989.420  989.750  990.827  989.910  991.549 1016.135  989.584  999.565  988.975 1002.531  990.149  992.972  995.062  992.321  994.247  995.765  989.883  993.107  995.377  994.744 1001.063  999.241  994.087  995.724 1001.748 1000.462  994.495  998.325  994.718  995.732 1008.051  996.381 1000.917 1010.682 1000.453  996.611  994.727  998.107  996.006  996.047 1003.384  995.251  995.673  996.701  994.762 1005.908  996.436  995.133 1001.674  997.049 1016.452  995.159  997.650 1005.322  999.512 1013.508  999.304  998.799  998.366  998.114 1001.865 1007.228  997.430  997.106 1001.430  998.700 1003.287  999.408 1001.420 1001.780  998.806 1002.778  998.798 1006.139  999.678  998.996 1012.899  998.827 1001.282  999.398 1000.348 1000.664  998.512  998.430  999.735 1005.614 1005.890  999.349 1001.823 1007.790  998.657 1011.840 1000.577  999.650 1002.344  998.689 1007.495 1000.464 1000.621 1002.246 1000.663 1010.424 1008.574  999.557 1001.379 1000.821 1003.811 1013.378  999.983 1003.951 1002.617 1002.403 1010.403 1004.253 1004.396 1007.470 1008.063 1007.948 1009.313 1007.294 1005.647 1004.295 1021.022 1009.484 1007.102 1006.250 1009.104 1019.871 1007.634 1008.313 1014.033 1006.557 1025.959 1004.070 1007.169 1008.629 1006.911 1024.413 1005.873 1010.355 1005.992 1004.252 1006.530 1005.656 1005.237 1004.269 1003.861 1004.305 1003.296 1002.840 1010.257 1004.138 1004.012 1013.787 1004.573 1015.415 1005.469 1006.134 1009.522 1005.309 1007.119 1010.565 1005.093 1014.277 1005.589 1007.070 1008.994 1005.785 1008.937 1005.685 1005.555 1018.700 1005.816 1006.070 1006.622 1014.732 1012.630 1008.947 1009.902 1007.299 1000.814 
DATE 2015:203:19:36:20 obsn  56 az 247 el 50 freq_MHz  1421.5000 Tsys 182.760 Tant 886.323 vlsr   10.18 glat 25.431 glon 202.192 source Sun 
Fstart 1420.497 fstop 1422.503 spacing 0.009375 bw    2.400 fbw    2.000 MHz nfreq 256 nsam 1048576 npoint 214 integ   127 sigma    0.168 bsw 0
Spectrum 
 980.898  989.579  984.992  987.652  987.713  991.411  988.409  987.090  987.875  988.556  987.554  990.544  998.765  993.018  994.968  995.749 1000.849 1000.072  997.188 1002.481  997.835  999.497 1004.707  996.910 1000.203  995.451  994.421  998.853  992.771  992.766  993.279  992.116 1001.522  990.851  991.075  992.150  991.311  992.711 1017.433  990.698 1000.847  990.332 1003.902  991.242  994.395  996.454  993.532  995.587  997.235  991.247  994.435  996.494  995.983 1002.453 1000.708  995.443  997.109 1003.024 1001.644  995.612  999.476  995.819  996.966 1009.279  997.633 1002.188 1012.031 1001.668  997.970  995.921  999.436  997.374  997.221 1004.861  996.501  996.893  998.243  996.251 1006.979  997.789  996.550 1002.883  998.269 1017.700  996.611  998.944 1006.646 1000.795 1014.776 1000.730 1000.181  999.545  999.493 1003.174 1008.618  998.765  998.466 1002.797  999.948 1004.407 1000.640 1002.517 1003.222 1000.007 1003.964 1000.096 1007.518 1000.738 1000.463 1014.186 1000.248 1002.728 1000.832 1001.673 1001.601  999.917  999.784 1001.051 1006.762 1007.238 1000.767 1002.937 1009.083 1000.015 1013.212 1001.916 1001.050 1003.722  999.943 1008.578 1001.697 1001.958 1003.703 1001.973 1011.926 1009.893 1000.842 1002.953 1002.124 1005.285 1014.908 1001.399 1005.314 1003.881 1003.884 1011.798 1005.638 1005.718 1008.724 1009.387 1009.277 1010.392 1008.781 1006.810 1005.561 1022.136 1010.678 1008.462 1007.724 1010.659 1021.286 1008.806 1009.592 1015.239 1007.819 1027.260 1005.335 1008.298 1009.848 1008.316 1025.496 1007.027 1011.555 1007.314 1005.545 1007.780 1007.099 1006.505 1005.715 1005.067 1005.627 1004.406 1004.170 1011.598 1005.566 1005.290 1014.905 1005.913 1016.770 1006.641 1007.364 1010.718 1006.398 1008.543 1011.905 1006.448 1015.562 1006.742 1008.407 1010.382 1006.890 1010.234 1007.057 1006.820 1019.797 1007.047 1007.109 1007.710 1016.241 1014.008 1010.206 1011.355 1008.410 1002.094 
DATE 2015:203:19:36:34 obsn  57 az 247 el 50 freq_MHz  1421.5000 Tsys 182.760 Tant 901.347 vlsr   10.18 glat 25.431 glon 202.192 source Sun 
Fstart 1420.497 fstop 1422.503 spacing 0.009375 bw    2.400 fbw    2.000 MHz nfreq 256 nsam 1048576 npoint 214 integ   129 sigma    0.166 bsw 0
Spectrum 
 982.088  990.613  986.129  989.059  988.841  992.789  989.617  988.262  989.214  989.640  988.684  991.642  999.800  994.016  996.086  996.916 1002.077 1001.312  998.521 1003.828  999.003 1000.697 1005.849  998.133 1001.470  996.757  995.740 1000.082  994.046  994.190  994.479  993.391 1002.788  991.707  992.351  993.234  992.721  993.849 1018.779  991.851 1002.223  991.407 1005.265  992.788  995.449  997.677  994.707  997.135  998.432  992.655  995.765  997.654  997.421 1003.748 1001.789  996.728  998.239 1004.182 1002.844  996.964 1000.803  996.864  998.071 1010.503  998.647 1003.337 1013.274 1002.899  999.154  997.246 1000.710  998.352  998.511 1005.994  997.576  998.361  999.365  997.574 1008.172  999.158  997.818 1004.097  999.425 1019.150  997.750 1000.102 1008.002 1001.941 1015.900 1001.987 1001.381 1000.733 1000.610 1004.294 1009.815 1000.071  999.865 1004.090 1001.111 1005.685 1001.952 1003.956 1004.628 1001.468 1005.054 1001.230 1008.504 1002.085 1001.470 1015.407 1001.585 1003.985 1002.119 1002.963 1002.944 1001.320 1001.130 1002.305 1007.991 1008.383 1002.089 1004.184 1010.165 1001.361 1014.408 1003.196 1002.408 1005.143 1001.135 1009.664 1003.038 1003.009 1004.841 1003.087 1013.186 1011.360 1002.168 1004.211 1003.458 1006.220 1015.978 1002.617 1006.740 1005.188 1005.303 1013.110 1006.859 1007.011 1009.980 1010.695 1010.605 1011.691 1010.106 1008.110 1006.827 1023.275 1012.010 1009.715 1008.812 1012.119 1022.484 1010.252 1010.971 1016.280 1009.088 1028.493 1006.609 1009.690 1011.054 1009.539 1026.592 1008.208 1012.825 1008.682 1006.636 1009.115 1008.377 1007.825 1006.867 1006.475 1006.824 1005.733 1005.463 1012.885 1006.773 1006.411 1016.289 1007.223 1018.049 1007.600 1008.388 1011.761 1007.475 1009.617 1013.198 1007.556 1016.681 1007.823 1009.714 1011.570 1008.049 1011.442 1008.183 1008.079 1020.951 1008.317 1008.177 1008.800 1017.359 1015.171 1011.465 1012.732 1009.716 1003.084 
DATE 2015:203:19:36:47 obsn  58 az 247 el 50 freq_MHz  1421.5000 Tsys 182.760 Tant 916.045 vlsr   10.18 glat 25.431 glon 202.192 source Sun 
Fstart 1420.497 fstop 1422.503 spacing 0.009375 bw    2.400 fbw    2.000 MHz nfreq 256 nsam 1048576 npoint 214 integ   131 sigma    0.165 bsw 0
Spectrum 
 983.385  992.020  987.427  990.152  990.102  993.949  991.233  989.792  990.477  990.899  989.991  993.025 1001.023  995.340  997.493  998.230 1003.461 1002.651  999.756 1005.348 1000.290 1002.061 1007.351  999.653 1002.791  998.189  997.179 1001.421  995.397  995.549  995.878  994.540 1004.066  993.226  993.491  994.591  994.185  995.120 1020.008  993.287 1003.838  992.605 1006.537  994.253  996.663  999.271  996.011  998.540  999.671  993.964  997.178  999.044  998.799 1004.899 1002.934  998.363  999.430 1005.429 1004.080  998.409 1002.189  998.237  999.416 1011.760 1000.172 1004.794 1014.686 1004.294 1000.473  998.835 1002.377  999.476  999.925 1007.378  999.098  999.789 1000.676  998.997 1009.737 1000.648  999.357 1005.622 1000.847 1020.610  999.314 1001.633 1009.250 1003.301 1017.287 1003.429 1002.734 1001.924 1001.959 1005.750 1011.180 1001.441 1001.019 1005.451 1002.443 1006.920 1003.278 1005.338 1005.934 1003.027 1006.541 1002.522 1009.987 1003.692 1002.873 1016.915 1002.901 1005.497 1003.464 1004.434 1004.345 1002.599 1002.757 1003.802 1009.533 1009.868 1003.430 1005.939 1011.596 1002.680 1015.684 1004.627 1003.826 1006.547 1002.540 1010.935 1004.468 1004.323 1006.201 1004.523 1014.688 1012.662 1003.467 1005.955 1005.045 1007.646 1017.130 1003.866 1007.973 1006.527 1006.709 1014.462 1008.451 1008.591 1011.454 1012.211 1011.785 1012.923 1011.406 1009.485 1008.247 1024.662 1013.357 1011.114 1010.276 1013.403 1023.653 1011.555 1011.988 1017.727 1010.520 1029.949 1008.017 1011.149 1012.464 1010.937 1027.891 1009.499 1014.468 1010.103 1008.196 1010.316 1009.714 1009.271 1008.206 1008.087 1008.397 1007.185 1006.781 1014.178 1008.287 1007.940 1017.657 1008.673 1019.473 1008.787 1009.916 1013.304 1008.885 1011.170 1014.428 1009.022 1018.022 1009.010 1011.205 1013.095 1009.557 1013.000 1009.643 1009.578 1022.562 1009.810 1009.624 1010.172 1018.937 1016.748 1012.790 1014.211 1010.946 1004.375 
DATE 2015:203:19:37:03 obsn  59 az 248 el 50 freq_MHz  1421.5000 Tsys 182.760 Tant 815.038 vlsr   10.18 glat 25.431 glon 202.192 source Sun 
Fstart 1420.497 fstop 1422.503 spacing 0.009375 bw    2.400 fbw    2.000 MHz nfreq 256 nsam 1048576 npoint 214 integ   133 sigma    0.164 bsw 0
Spectrum 
 983.640  991.989  987.455  990.262  990.004  993.978  991.327  989.849  990.832  991.209  990.225  993.326 1001.143  995.532  997.619  998.327 1003.592 1002.917  999.918 1005.642 1000.505 1002.039 1007.659  999.726 1002.922  998.328  997.318 1001.644  995.393  995.734  996.147  994.832 1004.304  993.411  993.656  994.758  994.394  995.440 1020.005  993.561 1003.857  992.880 1006.708  994.378  996.775  999.370  996.031  998.775  999.994  994.058  997.328  999.316  999.110 1005.197 1003.109  998.552  999.478 1005.594 1004.374  998.576 1002.282  998.517  999.576 1011.998 1000.420 1004.951 1014.849 1004.407 1000.571  998.936 1002.449  999.517 1000.060 1007.475  999.324  999.998 1001.137  999.212 1009.884 1000.720  999.622 1005.775 1001.030 1020.563  999.355 1001.765 1009.207 1003.461 1017.535 1003.518 1002.980 1002.210 1002.146 1005.972 1011.430 1001.490 1001.049 1005.720 1002.509 1007.007 1003.396 1005.544 1006.186 1003.269 1006.750 1002.580 1010.085 1003.674 1002.995 1016.961 1003.155 1005.728 1003.567 1004.664 1004.564 1002.722 1002.929 1004.017 1009.691 1009.759 1003.722 1006.009 1011.775 1002.837 1015.816 1004.810 1003.985 1006.807 1002.619 1010.917 1004.510 1004.546 1006.248 1004.580 1014.923 1012.907 1003.690 1006.135 1005.170 1007.793 1017.380 1003.995 1008.086 1006.561 1007.026 1014.570 1008.428 1008.655 1011.682 1012.318 1012.064 1013.064 1011.550 1009.862 1008.479 1024.714 1013.515 1011.227 1010.470 1013.596 1023.826 1011.930 1012.088 1017.929 1010.629 1029.973 1008.187 1011.216 1012.470 1011.149 1028.245 1009.771 1014.639 1010.333 1008.254 1010.254 1009.843 1009.531 1008.326 1008.344 1008.472 1007.280 1007.159 1014.165 1008.437 1008.148 1017.848 1008.783 1019.616 1008.829 1010.034 1013.496 1008.803 1011.467 1014.718 1009.237 1018.324 1009.097 1011.282 1013.180 1009.500 1013.462 1009.676 1009.706 1022.832 1010.142 1009.954 1010.455 1019.007 1016.770 1012.988 1014.256 1011.001 1004.337 
DATE 2015:203:19:37:16 obsn  60 az 248 el 50 freq_MHz  1421.5000 Tsys 182.760 Tant 817.095 vlsr   10.18 glat 25.431 glon 202.192 source Sun 
Fstart 1420.497 fstop 1422.503 spacing 0.009375 bw    2.400 fbw    2.000 MHz nfreq 256 nsam 1048576 npoint 214 integ   135 sigma    0.162 bsw 0
Spectrum 
 983.250  991.831  987.298  990.292  989.634  993.829  991.184  989.602  990.822  991.044  990.081  993.180 1000.852  995.475  997.579  998.125 1003.460 1002.556  999.830 1005.602 1000.492 1001.915 1007.502  999.557 1002.782  997.987  997.258 1001.293  995.256  995.535  995.885  994.690 1004.256  993.281  993.376  994.598  994.356  995.265 1019.795  993.339 1003.569  992.614 1006.539  993.994  996.415  999.321  996.112  998.542  999.761  993.999  997.147  999.159  999.245 1004.990 1002.873  998.468  999.331 1005.550 1004.237  998.557 1002.160  998.403  999.487 1012.043 1000.278 1004.700 1014.505 1004.137 1000.315  998.842 1002.425  999.186  999.866 1007.375  999.260 1000.006 1001.001  999.133 1009.692 1000.534  999.281 1005.556 1001.053 1020.415  999.210 1001.678 1008.952 1003.096 1017.486 1003.273 1002.851 1001.972 1001.979 1005.759 1011.298 1001.196 1000.818 1005.531 1002.415 1006.922 1003.234 1005.366 1005.961 1003.157 1006.582 1002.422 1010.058 1003.419 1002.946 1016.874 1003.031 1005.555 1003.508 1004.442 1004.348 1002.392 1002.905 1003.698 1009.624 1009.607 1003.411 1005.712 1011.571 1002.784 1015.712 1004.685 1003.948 1006.705 1002.675 1010.850 1004.529 1004.494 1006.415 1004.337 1014.778 1012.766 1003.511 1006.146 1005.050 1007.741 1017.135 1004.191 1008.069 1006.439 1006.827 1014.392 1008.239 1008.634 1011.571 1012.194 1011.941 1012.925 1011.177 1009.681 1008.505 1024.606 1013.519 1011.306 1010.295 1013.336 1023.620 1011.860 1012.012 1017.894 1010.509 1029.959 1007.965 1011.288 1012.509 1011.003 1028.274 1009.568 1014.434 1010.159 1008.194 1010.169 1009.881 1009.496 1008.177 1008.371 1008.220 1007.239 1006.951 1013.835 1008.053 1007.925 1017.857 1008.758 1019.473 1008.774 1010.022 1013.346 1008.726 1011.273 1014.519 1009.035 1018.190 1008.913 1011.194 1012.901 1009.343 1013.266 1009.539 1009.243 1022.611 1009.916 1009.788 1010.352 1018.785 1016.593 1012.956 1014.126 1010.921 1004.056 
