DATE 2014:084:19:19:11 obsn   0 az  50 el 25 freq_MHz   868.0000 Tsys 171.000 Tant 289.811 vlsr  -29.36 glat 18.718 glon 75.317 source at_stow
Fstart  866.997 fstop  869.003 spacing 0.009375 bw    2.400 fbw    2.000 MHz nfreq 256 nsam 1048576 npoint 214 integ     3 sigma    1.010 bsw 0
Spectrum 
 468.979  464.135  459.261  461.866  456.031  455.417  458.609  461.725  459.694  459.518  458.465  461.235  461.325  465.416  458.271  458.673  464.301  459.621  462.566  457.876  459.044  458.893  458.970  457.085  457.532  460.663  463.081  460.663  463.387  463.342  462.129  459.792  462.963  458.085  459.203  460.907  465.910  456.861  459.393  458.081  462.353  455.999  459.822  460.860  461.448  459.667  464.670  458.026  465.289  469.254  456.404  461.386  462.115  460.406  466.400  462.653  460.346  460.306  464.073  457.568  459.708  459.489  459.587  456.406  460.716  460.484  461.476  464.876  460.793  458.424  455.598  457.635  459.002  459.796  464.484  461.593  462.715  457.421  460.584  458.090  457.417  461.827  457.254  464.557  458.786  464.487  457.574  456.037  462.695  459.317  459.507  461.670  460.368  463.040  458.578  458.605  465.393  466.955  464.341  461.019  463.731  455.417  460.354  455.688  458.449  462.860  462.177  455.694  457.341  460.998  456.907  462.151  461.759  455.661  458.978  460.455  460.824  461.637  458.343  458.550  459.251  464.650  458.497  460.430  460.947  460.140  457.825  460.980  462.319  461.839  460.048  465.688  458.714  463.221  456.302  459.533  453.831  459.449  458.601  464.023  463.423  458.488  460.043  458.025  460.539  460.251  460.104  459.499  456.422  470.148  463.142  460.721  465.615  464.714  461.573  461.924  461.216  458.020  465.119  462.515  463.164  464.914  463.960  461.524  463.167  463.002  462.234  460.576  457.617  462.315  460.010  456.355  457.858  461.077  459.125  455.425  457.744  458.607  459.845  466.916  463.997  462.402  467.084  464.209  461.806  461.755  460.778  463.906  459.780  462.223  455.736  459.972  455.680  445.737  446.557  444.701  444.635  447.897  624.035  443.317  437.752  446.135  449.893  448.863  458.069  458.256  465.666  463.325  466.229  462.956  462.326  454.629  458.742  463.695 
DATE 2014:084:19:19:13 obsn   1 az  50 el 25 freq_MHz   868.0000 Tsys 171.000 Tant 287.923 vlsr  -29.36 glat 18.710 glon 75.320 source at_stow
Fstart  866.997 fstop  869.003 spacing 0.009375 bw    2.400 fbw    2.000 MHz nfreq 256 nsam 1048576 npoint 214 integ     5 sigma    0.771 bsw 0
Spectrum 
 467.377  461.729  460.778  462.093  458.204  456.224  458.276  460.496  457.540  459.385  459.656  461.008  459.988  460.468  460.602  460.113  461.954  461.680  462.646  459.100  459.920  459.313  460.792  458.914  458.082  458.478  464.148  460.397  463.643  461.137  462.027  457.701  463.627  458.737  458.536  460.285  461.919  459.039  459.258  457.376  460.222  457.635  459.258  458.222  462.755  459.850  463.768  457.926  461.553  464.785  455.719  461.079  460.502  460.348  462.882  461.402  460.854  457.255  463.394  457.012  457.369  461.725  461.147  455.985  462.884  460.978  462.801  463.799  460.305  459.494  458.356  459.505  462.023  458.851  462.933  458.457  460.064  458.276  462.358  457.701  458.019  459.585  459.256  461.262  458.302  462.834  462.628  457.549  462.122  459.525  459.416  460.173  459.438  458.751  460.103  457.369  465.930  465.561  465.082  459.473  463.710  458.155  460.270  460.244  458.979  462.817  460.986  457.565  457.628  461.419  455.888  460.783  462.097  456.353  457.797  458.060  461.449  458.775  460.354  460.031  459.939  460.436  458.602  460.244  459.793  459.109  457.755  459.539  463.290  463.099  460.405  462.657  461.055  462.837  459.050  458.529  457.086  459.277  458.654  460.246  462.087  461.051  459.555  456.721  459.230  461.433  458.996  460.704  456.996  467.656  460.617  462.238  462.960  459.439  461.044  459.644  464.123  460.490  463.759  462.740  462.020  463.594  463.689  462.748  460.957  460.904  461.525  461.889  457.424  462.856  460.299  457.712  457.944  459.966  462.174  455.600  458.142  459.120  458.892  460.828  461.310  461.183  466.435  463.624  461.609  464.135  461.237  463.642  458.884  461.233  457.674  461.020  455.583  448.231  445.971  444.068  444.172  447.343  623.516  444.953  437.240  445.693  447.576  447.919  454.494  458.692  465.640  465.231  464.753  462.337  460.879  456.240  458.042  465.809 
DATE 2014:084:19:19:16 obsn   2 az  50 el 25 freq_MHz   868.0000 Tsys 171.000 Tant 288.141 vlsr  -29.36 glat 18.702 glon 75.323 source at_stow
Fstart  866.997 fstop  869.003 spacing 0.009375 bw    2.400 fbw    2.000 MHz nfreq 256 nsam 1048576 npoint 214 integ     7 sigma    0.648 bsw 0
Spectrum 
 467.466  461.699  461.553  461.005  457.413  456.804  458.321  461.458  458.791  458.756  460.801  461.591  460.187  460.877  462.164  460.896  461.355  461.657  461.814  457.810  460.550  460.623  460.963  458.740  457.960  457.844  463.826  460.222  462.802  461.927  461.256  456.997  462.363  457.553  458.986  459.777  460.675  456.903  458.517  457.352  459.289  456.520  459.446  456.931  460.819  459.583  461.468  458.981  460.836  462.814  454.962  459.650  459.051  461.607  462.430  460.643  458.589  457.747  462.806  457.189  457.421  461.008  460.261  457.453  462.348  459.863  460.595  462.241  460.815  460.317  458.535  460.663  460.564  457.329  461.600  457.961  460.160  458.919  461.159  458.302  457.537  459.555  458.759  458.588  458.063  462.725  461.944  457.775  460.894  460.364  459.637  461.393  460.285  461.118  459.645  458.441  464.562  463.157  464.329  460.041  462.050  459.004  459.303  459.118  458.408  462.796  459.515  457.085  456.364  460.537  455.953  460.486  460.675  457.153  456.954  458.183  459.515  459.242  460.646  461.762  458.462  459.205  460.369  460.816  458.838  460.577  457.293  459.194  462.263  462.062  459.142  462.232  460.051  461.033  458.870  458.813  456.469  460.009  457.343  458.571  459.979  459.344  459.976  458.497  458.923  459.800  460.517  460.267  456.072  466.921  460.441  459.562  461.504  459.719  460.434  461.140  462.683  459.239  464.504  462.939  463.292  463.619  462.886  460.966  460.043  461.464  460.498  461.728  458.626  461.304  459.882  457.870  458.055  458.467  460.268  455.590  458.530  457.636  457.520  460.547  460.756  460.136  465.308  464.375  462.722  464.786  462.391  462.359  459.369  460.114  459.057  461.100  455.740  449.397  446.123  443.434  444.555  445.383  622.457  444.251  438.151  444.762  446.257  446.803  453.564  458.434  464.193  465.203  465.911  461.952  460.995  457.432  458.009  465.156 
DATE 2014:084:19:19:18 obsn   3 az  50 el 25 freq_MHz   868.0000 Tsys 171.000 Tant 288.649 vlsr  -29.36 glat 18.696 glon 75.325 source at_stow
Fstart  866.997 fstop  869.003 spacing 0.009375 bw    2.400 fbw    2.000 MHz nfreq 256 nsam 1048576 npoint 214 integ    10 sigma    0.570 bsw 0
Spectrum 
 466.998  462.495  461.566  459.604  458.473  456.952  458.455  459.832  457.831  458.595  459.200  460.566  460.463  461.741  461.552  461.495  460.461  461.565  461.443  458.114  461.068  461.879  462.260  459.524  456.911  457.167  462.631  459.797  460.774  460.869  460.318  456.414  461.413  456.259  458.343  458.684  459.664  458.415  458.381  456.766  458.941  455.720  458.320  456.244  459.505  460.099  461.063  460.025  460.599  460.503  456.023  458.561  457.709  460.308  462.200  461.176  458.605  457.495  462.199  457.151  458.480  460.768  460.011  457.267  462.464  459.217  459.816  460.287  460.986  459.621  459.990  459.553  460.243  458.411  462.417  457.040  460.763  458.645  460.764  457.807  458.496  460.029  458.197  460.364  458.447  462.332  461.162  458.839  459.185  460.203  458.807  460.522  460.695  461.643  459.633  457.569  463.627  461.467  463.435  460.364  460.867  458.767  458.586  458.598  457.500  460.355  458.931  455.965  457.051  459.566  455.521  459.897  460.077  457.118  457.070  457.711  459.257  459.298  459.588  460.911  457.076  457.714  460.139  460.317  457.662  459.432  458.220  458.966  461.356  460.881  459.030  460.337  460.057  460.496  458.171  458.687  456.133  459.266  458.968  457.781  458.760  460.174  459.496  458.727  459.098  459.083  460.392  458.988  457.810  465.719  460.876  459.354  461.968  460.483  460.619  461.189  461.634  459.646  464.193  462.631  461.987  463.050  462.168  460.355  460.431  462.398  460.282  461.092  458.261  460.271  459.056  458.610  458.581  458.106  460.552  455.470  459.116  457.644  458.268  460.783  461.417  459.880  465.157  463.330  462.199  464.719  462.807  463.097  459.907  460.087  459.190  460.905  453.948  449.296  446.565  443.807  444.757  445.169  621.114  443.394  437.956  444.952  446.761  447.710  452.293  457.953  463.927  464.705  465.406  463.118  461.792  457.926  456.272  464.588 
DATE 2014:084:19:19:21 obsn   4 az  50 el 25 freq_MHz   868.0000 Tsys 171.000 Tant 287.397 vlsr  -29.36 glat 18.688 glon 75.328 source at_stow
Fstart  866.997 fstop  869.003 spacing 0.009375 bw    2.400 fbw    2.000 MHz nfreq 256 nsam 1048576 npoint 214 integ    12 sigma    0.514 bsw 0
Spectrum 
 466.174  461.892  462.124  459.359  457.000  455.842  458.833  457.934  457.681  458.560  458.960  460.561  459.705  461.135  461.790  460.738  460.476  461.925  462.124  458.560  460.919  461.130  461.321  459.953  456.648  457.613  461.064  458.774  459.999  460.054  459.551  456.666  460.159  456.615  458.310  458.017  459.081  458.695  457.947  456.322  458.538  455.714  457.987  456.050  458.941  460.135  460.751  458.832  460.197  460.905  456.801  458.843  457.197  460.025  462.106  460.494  458.986  457.881  460.856  457.361  458.823  459.813  459.269  458.048  461.348  459.020  459.580  459.329  459.948  458.851  459.213  458.905  460.205  457.211  462.195  456.257  459.571  458.735  459.993  458.096  459.705  460.252  458.275  459.986  458.962  462.128  459.210  460.129  459.381  460.155  459.133  459.924  459.915  461.421  458.606  457.875  463.450  460.723  463.001  459.865  460.684  459.357  458.709  457.204  456.416  459.876  458.325  456.984  456.721  458.406  455.001  459.282  458.898  456.773  456.672  457.475  458.736  459.047  459.670  461.307  456.544  458.346  458.954  459.629  458.310  459.923  458.294  458.712  461.474  462.158  458.903  459.873  458.654  459.175  458.583  459.156  456.270  458.801  458.711  457.397  458.862  459.626  459.876  458.543  457.746  458.475  459.467  459.038  457.476  466.134  460.790  458.557  461.593  459.814  459.798  460.473  461.449  459.758  463.630  462.239  460.835  463.032  462.949  460.724  459.312  462.271  460.576  460.930  458.358  459.684  459.929  458.885  458.666  456.795  460.090  455.388  459.923  456.798  458.144  459.748  460.833  461.081  464.075  463.318  460.320  463.319  461.080  462.647  460.012  458.824  460.106  460.497  454.891  449.447  446.853  445.022  444.309  445.099  619.477  442.696  437.921  444.256  446.263  448.298  452.997  457.930  462.943  463.740  465.349  463.358  460.688  458.012  455.257  464.394 
DATE 2014:084:19:19:24 obsn   5 az  50 el 25 freq_MHz   868.0000 Tsys 171.000 Tant 285.572 vlsr  -29.36 glat 18.683 glon 75.330 source at_stow
Fstart  866.997 fstop  869.003 spacing 0.009375 bw    2.400 fbw    2.000 MHz nfreq 256 nsam 1048576 npoint 214 integ    14 sigma    0.472 bsw 0
Spectrum 
 465.346  462.451  462.146  458.648  457.898  456.028  459.043  457.971  457.514  458.245  458.717  459.905  460.012  460.644  461.893  460.102  460.702  461.212  461.149  458.182  461.473  460.498  460.847  459.650  456.031  456.979  461.199  459.339  459.300  459.069  458.813  456.137  459.921  456.484  457.724  457.393  458.235  458.087  457.006  456.062  458.070  456.043  458.832  456.302  458.882  459.833  460.110  458.751  459.517  460.397  456.730  459.070  457.590  460.422  461.708  459.544  458.541  457.553  460.996  456.919  459.536  459.826  459.179  457.418  459.895  457.985  458.884  459.498  459.201  458.334  458.519  458.907  459.544  456.583  460.632  456.573  459.008  459.045  458.923  457.968  458.866  459.652  458.449  459.331  458.694  462.138  459.188  459.950  459.675  459.692  459.315  460.259  459.792  460.391  458.303  458.279  462.905  460.174  461.927  458.707  460.118  459.244  457.992  458.057  457.125  459.905  458.576  456.027  457.382  458.617  455.536  459.233  458.174  456.733  456.591  457.244  457.870  459.190  459.762  461.059  456.864  457.900  459.473  459.216  459.442  459.979  458.804  459.515  461.049  462.324  458.566  459.319  457.992  459.434  458.502  458.500  456.389  458.034  458.070  458.328  458.318  459.077  459.743  458.633  456.599  457.911  458.967  458.445  457.996  465.379  460.823  458.282  460.824  459.047  459.855  460.686  461.009  460.600  463.491  462.577  461.366  462.474  462.576  461.162  459.042  461.949  460.371  460.669  457.956  459.785  459.079  457.971  459.441  457.067  458.653  455.531  458.770  456.418  457.900  460.298  460.645  460.266  462.825  462.110  460.778  463.070  461.313  462.268  459.533  458.422  459.495  460.586  453.471  448.920  445.749  444.323  444.041  445.177  619.047  442.115  438.129  443.439  446.720  448.189  452.873  457.720  462.498  462.903  465.538  463.141  459.859  456.974  454.812  465.124 
DATE 2014:084:19:19:26 obsn   6 az  50 el 25 freq_MHz   868.0000 Tsys 171.000 Tant 285.660 vlsr  -29.35 glat 18.674 glon 75.334 source at_stow
Fstart  866.997 fstop  869.003 spacing 0.009375 bw    2.400 fbw    2.000 MHz nfreq 256 nsam 1048576 npoint 214 integ    16 sigma    0.439 bsw 0
Spectrum 
 464.846  462.618  461.598  458.343  457.087  455.656  458.876  457.351  457.442  458.010  458.356  459.710  459.808  460.234  461.095  460.092  460.253  459.828  460.772  458.201  461.074  459.904  460.450  460.143  456.583  456.136  459.718  459.495  458.188  458.610  458.678  456.466  458.991  456.075  457.744  456.535  458.492  457.430  456.404  455.845  457.840  455.814  458.164  455.792  458.664  458.500  459.815  458.962  459.852  459.984  456.389  459.177  457.404  460.111  461.143  460.007  457.747  457.143  460.358  457.296  459.583  459.432  458.337  456.449  459.538  457.799  457.505  458.919  458.284  458.157  458.560  459.152  458.947  456.622  460.212  456.681  458.998  459.093  458.731  456.765  457.975  459.334  457.743  459.055  459.772  462.070  459.656  460.084  459.689  459.131  459.252  459.821  459.456  459.911  458.041  458.750  461.924  459.658  461.466  458.341  459.774  458.061  457.249  457.707  457.159  459.170  458.349  456.302  456.758  458.792  455.174  459.557  457.921  457.304  456.470  457.120  457.819  459.659  459.521  460.689  457.322  457.791  459.497  459.054  459.457  461.052  458.966  459.359  461.013  461.472  458.890  459.816  458.391  459.468  458.242  458.423  457.071  457.882  457.543  457.923  457.434  459.565  459.199  458.220  456.516  457.644  458.602  457.435  457.783  464.687  460.696  458.638  460.664  458.981  459.853  459.899  460.759  459.133  462.790  462.250  460.714  461.987  462.675  460.776  459.046  461.522  460.385  460.362  457.983  459.569  459.051  457.585  458.994  457.089  457.668  456.518  458.510  455.870  457.451  459.684  459.392  459.585  461.910  461.776  460.529  462.299  461.626  461.417  458.220  458.170  459.729  460.417  452.831  448.569  446.005  444.347  443.117  444.598  617.494  441.150  437.790  443.210  446.890  448.455  453.308  457.773  462.092  463.180  465.232  462.688  459.324  456.784  454.744  465.280 
DATE 2014:084:19:19:29 obsn   7 az  50 el 25 freq_MHz   868.0000 Tsys 171.000 Tant 286.244 vlsr  -29.35 glat 18.666 glon 75.337 source at_stow
Fstart  866.997 fstop  869.003 spacing 0.009375 bw    2.400 fbw    2.000 MHz nfreq 256 nsam 1048576 npoint 214 integ    18 sigma    0.412 bsw 0
Spectrum 
 464.750  462.174  461.139  458.973  456.883  455.459  458.740  457.142  457.651  457.449  458.252  459.562  459.442  459.921  460.710  459.512  459.595  459.422  460.349  458.492  460.589  459.783  460.063  460.180  456.480  455.950  459.255  459.068  457.924  458.656  458.748  456.546  458.120  456.167  457.471  456.168  459.020  457.425  455.860  455.319  457.452  455.993  458.278  455.413  458.332  458.347  459.716  458.251  458.942  459.851  456.666  459.268  457.162  459.609  460.606  460.111  458.106  457.600  460.047  456.721  459.396  458.818  458.372  456.269  459.116  457.962  457.796  458.536  458.365  458.027  458.119  459.490  458.700  455.952  459.519  456.692  458.343  458.363  458.171  457.029  457.180  458.486  457.355  458.696  459.536  461.743  458.980  459.975  459.242  459.403  459.222  459.159  459.486  459.954  457.632  458.917  461.711  459.000  460.655  457.850  459.223  457.721  457.463  457.871  456.883  458.599  457.766  456.387  457.152  458.366  455.461  459.457  457.600  456.388  456.536  457.144  457.715  459.848  458.442  460.215  457.477  457.583  459.662  458.582  459.411  461.028  458.227  458.929  461.241  461.241  458.340  458.896  458.221  459.441  458.203  457.963  457.084  458.126  457.609  457.125  458.000  458.797  458.690  457.667  456.657  456.260  457.938  456.679  456.895  464.892  460.008  458.475  460.379  458.451  459.198  458.885  460.615  458.596  462.474  462.031  460.524  461.288  462.127  460.097  458.291  461.180  459.682  459.377  458.456  458.856  458.939  457.779  458.808  457.272  456.947  456.728  458.240  455.946  457.176  459.621  459.120  459.964  461.448  461.145  460.645  462.456  460.999  461.166  458.010  457.903  459.713  459.338  452.296  448.702  445.502  443.509  442.558  443.940  616.524  440.973  438.121  442.891  446.508  447.970  452.667  457.232  461.474  462.382  464.317  461.709  459.325  456.639  453.965  464.481 
DATE 2014:084:19:19:37 obsn   8 az 124 el 28 freq_MHz   868.0000 Tsys 171.000 Tant 284.230 vlsr  -34.94 glat 41.261 glon  2.055 source S6 
Fstart  866.997 fstop  869.003 spacing 0.009375 bw    2.400 fbw    2.000 MHz nfreq 256 nsam 1048576 npoint 214 integ    21 sigma    0.390 bsw 0
Spectrum 
 464.567  461.773  460.894  459.109  457.293  455.616  458.078  456.535  456.927  457.038  457.675  458.755  459.484  459.300  461.048  459.375  459.796  458.647  459.699  458.434  459.915  459.770  459.586  459.091  456.390  455.775  458.606  458.534  457.307  458.127  458.170  456.577  457.693  455.648  457.241  456.219  458.792  457.338  455.756  454.718  456.899  455.663  457.678  455.163  457.747  458.047  459.328  457.535  458.557  459.359  456.025  458.135  457.297  459.184  460.660  459.791  458.275  456.961  459.429  456.628  458.733  458.485  457.807  456.079  459.220  457.131  457.920  458.304  458.411  457.547  457.427  459.389  458.761  455.295  458.231  456.769  458.096  458.186  457.769  457.186  456.046  458.452  457.174  458.306  458.985  460.955  458.445  459.582  458.774  459.168  458.815  458.677  459.506  459.488  457.547  458.667  461.004  458.554  459.956  457.721  458.500  457.434  456.576  457.385  456.035  458.449  457.430  456.194  456.451  458.384  455.371  458.973  456.806  456.558  456.116  456.794  457.525  459.348  457.858  458.873  458.028  457.961  459.244  458.330  458.730  461.012  458.817  458.561  461.032  460.915  458.023  459.503  458.342  459.135  457.725  457.749  456.840  457.233  457.034  457.041  457.600  458.189  458.019  457.215  456.293  455.622  457.549  455.792  456.553  464.145  459.878  458.044  460.134  458.011  458.286  458.473  459.918  458.238  462.210  462.113  459.770  460.010  461.294  459.654  458.327  461.183  458.928  459.298  458.254  458.180  458.973  458.134  457.939  456.656  457.021  456.634  457.213  456.163  457.113  459.096  458.458  459.790  461.292  461.110  461.149  461.819  460.775  461.002  457.168  457.211  459.801  458.576  451.457  448.414  445.126  442.299  442.565  443.252  615.903  440.291  437.304  442.926  445.792  447.537  452.703  457.067  461.948  461.476  463.982  461.551  458.849  456.103  453.379  463.981 
DATE 2014:084:19:19:40 obsn   9 az 124 el 28 freq_MHz   868.0000 Tsys 171.000 Tant 285.132 vlsr  -34.94 glat 41.261 glon  2.055 source S6 
Fstart  866.997 fstop  869.003 spacing 0.009375 bw    2.400 fbw    2.000 MHz nfreq 256 nsam 1048576 npoint 214 integ    23 sigma    0.371 bsw 0
Spectrum 
 464.638  461.683  460.709  458.838  456.925  455.292  457.521  455.727  456.977  457.030  457.120  458.792  458.858  459.333  460.619  458.927  459.444  458.475  459.045  458.206  459.524  459.145  459.241  458.895  455.920  455.892  458.498  458.278  456.365  457.270  457.533  456.070  456.996  455.073  456.236  455.223  458.241  457.426  455.733  454.022  456.632  455.929  457.117  454.662  457.131  457.509  459.097  456.978  458.443  459.023  456.069  457.690  457.850  458.879  460.256  459.326  457.963  456.951  458.590  455.965  458.627  458.147  458.057  455.577  458.934  456.742  457.534  457.680  458.102  457.117  456.842  459.207  458.048  454.355  457.753  456.173  457.653  457.892  457.669  456.542  456.195  458.079  457.031  457.839  458.504  460.972  458.496  458.770  458.086  458.590  458.333  457.926  458.681  458.880  457.262  458.697  460.860  458.012  458.732  457.170  458.051  456.962  456.745  457.507  456.229  457.926  457.372  456.018  456.366  458.154  455.403  458.734  456.741  456.099  456.246  456.524  457.127  458.513  457.279  458.570  457.893  457.827  459.453  458.317  458.642  460.386  458.188  458.671  460.489  460.706  457.654  458.644  457.872  458.862  457.495  457.796  456.466  456.896  456.561  456.840  457.428  457.796  457.200  456.874  455.830  455.678  457.175  455.152  456.502  463.865  459.974  457.195  459.607  457.710  458.240  458.234  459.796  457.566  461.715  461.646  459.675  459.870  460.926  459.276  457.847  460.200  458.078  458.528  457.347  457.954  458.114  457.344  457.582  455.801  456.302  456.286  456.725  456.308  456.959  458.689  457.983  459.242  461.106  460.681  461.200  461.550  460.093  460.614  457.011  456.746  459.483  458.599  451.332  447.775  444.631  442.537  441.972  443.304  615.982  439.663  437.781  442.103  444.934  447.380  452.242  456.339  461.472  461.363  463.493  460.646  458.346  455.729  452.907  463.979 
DATE 2014:084:19:19:43 obsn  10 az 124 el 28 freq_MHz   868.0000 Tsys 171.000 Tant 282.708 vlsr  -34.94 glat 41.261 glon  2.055 source S6 
Fstart  866.997 fstop  869.003 spacing 0.009375 bw    2.400 fbw    2.000 MHz nfreq 256 nsam 1048576 npoint 214 integ    25 sigma    0.354 bsw 0
Spectrum 
 464.050  461.363  460.181  458.171  456.264  455.316  456.696  455.556  456.139  457.053  457.252  458.124  458.738  458.548  459.890  458.334  459.066  457.720  458.694  458.085  459.371  458.280  458.383  458.238  455.680  455.657  457.690  457.661  455.875  456.671  457.508  455.887  456.746  454.731  455.604  454.907  457.676  457.115  455.815  453.543  456.731  456.006  456.465  454.632  457.288  457.176  458.496  456.143  457.767  458.737  455.887  457.410  457.529  458.580  459.600  459.229  457.664  456.592  458.227  456.219  458.112  457.846  457.783  455.437  457.923  456.280  457.263  457.073  457.722  456.997  456.254  458.928  457.474  454.490  457.695  456.356  457.106  457.355  457.168  456.390  455.905  458.280  457.317  457.465  458.214  460.453  458.341  457.947  457.775  458.889  458.095  457.158  458.644  458.313  457.024  458.561  459.983  457.727  458.392  456.604  457.929  456.774  456.686  457.029  455.893  457.350  457.191  455.499  455.894  458.163  455.046  458.476  456.304  455.281  455.537  456.260  456.905  458.115  456.699  458.028  457.400  457.387  459.117  458.186  458.183  459.949  457.409  458.443  460.343  459.915  457.382  458.647  457.680  458.564  457.014  457.252  456.142  456.731  455.762  456.916  457.093  457.324  456.614  456.531  455.054  455.435  457.047  454.695  456.110  463.644  459.695  457.075  458.965  457.153  458.072  458.293  459.148  457.580  461.183  460.836  458.411  460.083  460.642  459.047  457.704  459.323  457.747  457.818  457.344  457.586  457.715  456.957  457.090  455.358  456.006  455.778  456.255  455.953  456.233  458.166  457.712  458.781  460.871  459.944  460.762  460.854  459.530  460.272  456.825  456.481  458.946  458.163  451.122  447.361  444.164  442.356  441.843  443.157  614.990  439.153  437.616  441.880  444.668  447.129  451.870  456.520  461.105  461.537  463.275  460.621  457.694  455.413  452.524  464.280 
DATE 2014:084:19:19:45 obsn  11 az 124 el 28 freq_MHz   868.0000 Tsys 171.000 Tant 282.009 vlsr  -34.94 glat 41.261 glon  2.055 source S6 
Fstart  866.997 fstop  869.003 spacing 0.009375 bw    2.400 fbw    2.000 MHz nfreq 256 nsam 1048576 npoint 214 integ    27 sigma    0.339 bsw 0
Spectrum 
 463.679  460.711  459.674  457.713  456.077  455.006  456.537  455.105  456.027  456.628  456.949  457.587  458.780  458.146  459.401  458.231  458.946  457.986  458.930  458.071  458.659  458.068  457.898  457.545  455.665  455.612  457.268  457.545  455.271  456.195  457.080  455.836  456.384  454.790  455.305  454.754  457.255  456.917  455.639  453.191  456.488  455.545  455.893  454.556  457.243  457.220  457.864  455.777  457.228  458.261  456.081  456.905  457.000  457.635  459.330  459.094  457.379  456.470  458.033  455.865  457.919  457.943  457.277  454.600  457.408  455.911  456.435  456.520  457.098  456.667  455.825  458.519  457.222  454.127  457.525  456.123  456.812  456.774  456.666  455.970  455.054  457.501  457.334  457.646  458.007  460.123  458.252  457.500  457.515  458.812  457.844  456.949  458.861  458.188  456.653  458.128  459.353  456.998  457.987  455.971  457.336  456.198  455.778  455.997  455.816  457.125  457.115  454.980  455.659  457.573  454.548  457.988  455.990  454.917  455.149  455.575  456.129  457.380  456.886  457.980  456.669  456.783  458.620  458.549  457.759  459.441  457.419  458.543  459.970  459.274  456.913  458.391  457.065  458.084  456.945  456.739  455.910  456.413  455.511  456.705  456.552  456.732  456.262  456.064  454.739  454.732  456.281  454.420  455.906  463.511  459.327  456.554  458.684  457.010  457.704  457.982  459.041  457.251  460.352  460.459  457.774  459.817  459.987  458.547  456.898  459.176  457.370  457.538  456.710  456.831  457.253  456.407  456.736  455.276  455.547  455.425  455.900  455.539  455.877  457.411  457.100  458.545  460.570  459.984  460.037  460.387  459.056  459.583  456.677  456.058  458.734  457.875  450.704  447.042  444.180  441.988  441.370  443.576  613.895  438.655  437.278  440.902  444.044  447.116  451.323  456.597  460.757  461.464  462.443  460.281  457.033  454.680  452.563  463.813 
DATE 2014:084:19:19:48 obsn  12 az 124 el 28 freq_MHz   868.0000 Tsys 171.000 Tant 283.743 vlsr  -34.94 glat 41.261 glon  2.055 source S6 
Fstart  866.997 fstop  869.003 spacing 0.009375 bw    2.400 fbw    2.000 MHz nfreq 256 nsam 1048576 npoint 214 integ    29 sigma    0.326 bsw 0
Spectrum 
 463.678  460.553  459.168  457.214  455.678  454.353  456.283  454.838  456.029  456.219  456.034  457.314  458.352  458.350  458.936  458.034  458.769  458.100  458.329  457.555  458.531  457.591  457.363  457.243  455.627  455.806  456.724  457.245  455.009  455.791  456.446  455.565  456.192  454.826  454.675  454.340  456.981  456.270  455.172  453.198  455.940  455.413  455.600  454.133  456.642  456.620  457.612  455.465  456.699  457.884  456.605  456.802  456.810  457.605  458.687  458.610  457.268  456.076  457.950  456.107  457.451  457.705  456.824  454.387  456.856  455.842  455.843  456.632  456.787  456.576  455.880  458.180  456.556  453.391  457.092  455.671  456.837  456.534  456.341  455.918  455.476  457.128  457.199  457.429  457.716  459.427  457.920  457.446  457.591  458.692  457.389  456.879  458.565  458.046  456.807  457.533  458.871  456.556  457.716  455.735  456.731  456.317  455.520  455.759  455.798  456.720  456.632  454.523  455.155  457.177  454.240  457.194  455.475  454.968  454.489  454.825  455.963  457.081  456.368  457.672  456.433  457.002  458.003  458.316  457.285  458.975  456.984  458.104  459.270  458.852  457.153  457.673  457.144  457.831  456.394  456.448  455.342  456.028  455.256  456.602  456.102  456.596  455.873  456.058  454.752  454.603  455.929  454.605  455.902  462.913  459.225  456.056  458.230  456.657  457.026  457.651  458.927  456.995  459.877  460.015  457.821  459.191  459.581  457.904  456.913  458.893  456.999  457.315  456.022  456.509  457.181  455.995  456.244  455.140  455.239  454.816  455.559  455.172  455.450  457.368  456.302  458.365  460.149  460.086  459.960  460.624  459.167  459.281  456.372  455.404  458.061  457.578  450.864  446.800  444.028  441.397  441.002  443.201  613.345  438.498  436.846  440.278  443.659  446.822  450.837  456.300  460.302  461.238  462.141  460.097  456.653  454.246  452.630  463.665 
DATE 2014:084:19:19:51 obsn  13 az 124 el 28 freq_MHz   868.0000 Tsys 171.000 Tant 282.285 vlsr  -34.94 glat 41.261 glon  2.055 source S6 
Fstart  866.997 fstop  869.003 spacing 0.009375 bw    2.400 fbw    2.000 MHz nfreq 256 nsam 1048576 npoint 214 integ    31 sigma    0.315 bsw 0
Spectrum 
 463.432  460.364  458.951  456.666  455.532  453.872  456.162  454.138  455.584  455.780  455.699  457.180  458.296  457.859  458.689  457.647  458.558  457.878  458.049  457.421  458.427  457.270  457.456  456.492  455.374  455.855  456.452  456.833  454.498  455.729  456.318  455.817  456.046  454.380  454.217  454.426  456.887  455.813  455.375  452.909  455.501  455.327  455.089  453.803  456.086  455.991  457.200  455.260  456.776  457.176  456.516  456.686  456.512  457.280  458.760  458.104  456.932  455.892  457.547  455.750  456.984  457.488  456.796  454.319  456.102  455.631  455.806  456.338  456.295  456.427  456.047  458.025  456.204  453.050  457.038  455.686  456.285  456.182  456.222  455.247  455.307  457.117  457.052  456.852  457.464  458.884  457.869  457.138  457.593  458.482  457.060  456.820  458.449  457.955  456.947  457.103  458.462  456.542  457.464  455.234  456.491  456.053  455.206  455.250  455.048  456.356  456.332  453.964  454.845  456.698  454.329  456.428  455.236  455.138  454.312  454.501  455.497  456.456  456.067  457.373  456.063  456.329  458.259  457.992  456.776  458.677  456.538  457.693  458.933  458.466  456.942  457.419  456.991  457.639  456.390  456.138  454.932  456.018  454.740  456.477  456.284  455.946  455.291  455.484  454.322  454.159  455.125  454.275  455.960  462.712  458.754  456.179  457.964  456.389  456.833  457.259  458.817  456.799  459.471  459.545  457.603  458.976  458.846  457.751  456.743  458.392  456.730  457.210  455.918  455.990  456.451  455.581  456.058  454.819  454.611  454.381  455.554  455.021  455.241  457.487  456.053  458.380  459.658  460.116  459.315  459.959  459.158  459.105  456.190  455.114  457.781  456.974  450.411  446.311  443.579  441.356  440.405  442.781  612.982  438.622  436.880  440.096  443.626  446.538  450.617  456.189  460.121  461.151  462.434  459.935  456.393  453.916  452.688  463.418 
DATE 2014:084:19:19:53 obsn  14 az 124 el 28 freq_MHz   868.0000 Tsys 171.000 Tant 281.563 vlsr  -34.94 glat 41.261 glon  2.055 source S6 
Fstart  866.997 fstop  869.003 spacing 0.009375 bw    2.400 fbw    2.000 MHz nfreq 256 nsam 1048576 npoint 214 integ    34 sigma    0.304 bsw 0
Spectrum 
 462.757  459.907  458.300  456.397  455.247  453.791  455.512  453.947  455.481  455.902  455.444  457.164  457.882  457.278  458.318  457.403  457.965  457.854  457.682  457.174  458.284  457.185  457.221  456.208  455.364  455.466  456.005  456.264  454.115  455.558  455.619  455.376  455.817  453.853  453.917  453.706  456.526  455.620  455.101  452.613  455.265  455.189  454.603  453.637  455.609  455.718  457.045  454.982  456.474  456.572  456.142  456.569  456.401  457.049  458.553  457.823  456.455  455.839  457.339  455.692  456.677  457.280  456.336  453.840  455.791  455.614  455.570  456.070  455.981  456.336  455.841  457.830  455.845  453.039  456.995  455.275  455.718  456.269  455.719  454.985  455.078  457.019  457.114  456.563  457.162  458.238  457.814  457.034  457.321  458.177  456.660  456.157  458.224  457.175  456.920  456.666  458.118  456.510  457.154  454.984  456.176  455.593  454.689  455.159  454.780  456.095  456.102  453.671  454.363  456.196  454.190  455.922  454.645  454.843  453.887  454.230  455.123  455.990  455.845  457.292  455.670  455.981  457.990  457.537  456.658  458.367  456.528  457.172  458.408  458.105  456.301  456.983  456.413  456.887  456.256  455.844  454.528  455.413  454.448  455.927  456.229  455.779  454.902  455.219  454.533  453.863  454.810  454.052  455.525  462.254  458.313  455.875  457.797  455.978  457.133  457.233  458.445  456.657  458.698  459.130  457.322  458.773  458.512  457.242  456.698  458.316  456.673  456.739  455.563  455.611  456.030  455.358  455.680  454.489  454.451  453.897  455.365  454.470  455.029  457.121  456.107  457.986  459.082  459.628  459.229  459.725  459.081  458.946  455.801  454.833  457.824  456.689  449.914  446.067  443.431  440.952  439.998  442.315  612.475  438.366  436.420  439.684  443.401  446.355  449.929  455.716  459.910  461.044  462.253  459.472  456.242  454.065  452.687  463.558 
DATE 2014:084:19:19:56 obsn  15 az 124 el 28 freq_MHz   868.0000 Tsys 171.000 Tant 279.540 vlsr  -34.94 glat 41.261 glon  2.055 source S6 
Fstart  866.997 fstop  869.003 spacing 0.009375 bw    2.400 fbw    2.000 MHz nfreq 256 nsam 1048576 npoint 214 integ    36 sigma    0.295 bsw 0
Spectrum 
 462.457  459.649  457.797  456.185  455.174  453.485  455.469  453.720  455.363  455.847  455.215  456.939  457.492  457.049  457.770  457.031  457.307  457.825  457.788  456.803  457.539  457.007  457.034  455.876  454.991  455.505  455.862  455.661  453.568  455.065  455.540  454.866  455.586  453.629  453.473  453.565  456.307  455.095  454.676  452.489  454.997  454.954  454.221  453.527  455.329  455.479  456.673  454.641  456.103  455.900  455.692  455.910  456.071  456.383  457.765  457.320  456.008  455.297  456.804  455.280  456.570  456.901  456.129  453.325  455.514  454.975  455.172  455.991  455.741  455.772  455.501  457.631  455.632  452.604  456.672  454.948  455.463  455.984  455.494  454.516  455.044  456.606  456.908  456.332  456.914  457.741  457.431  456.825  457.047  457.736  456.083  456.167  457.898  457.132  456.514  456.658  457.425  456.621  456.895  454.786  455.743  455.310  454.496  454.854  454.320  455.753  456.055  453.593  453.689  455.701  453.928  455.677  454.559  454.447  453.326  454.025  454.835  455.471  455.300  457.196  455.369  455.650  457.485  457.304  456.328  457.932  456.259  456.496  457.865  457.599  456.207  456.604  456.102  456.517  456.217  455.477  454.451  455.398  454.023  455.790  455.930  455.337  454.330  454.933  454.325  453.703  454.824  453.853  455.306  461.757  458.005  455.649  457.186  455.817  456.697  456.821  458.189  456.529  458.419  458.835  457.285  458.349  458.201  456.892  456.499  458.304  456.597  456.710  455.562  455.329  455.675  455.219  455.447  454.169  454.389  453.459  455.044  454.204  454.811  457.028  455.597  457.536  458.892  459.122  458.630  459.304  458.948  458.533  455.420  454.558  457.430  456.586  449.450  446.034  443.244  440.814  439.743  441.897  612.041  437.788  436.218  439.346  443.225  445.834  449.542  455.045  459.646  460.695  461.936  459.254  456.533  453.695  452.487  463.345 
DATE 2014:084:19:19:58 obsn  16 az 124 el 28 freq_MHz   868.0000 Tsys 171.000 Tant 281.852 vlsr  -34.94 glat 41.261 glon  2.055 source S6 
Fstart  866.997 fstop  869.003 spacing 0.009375 bw    2.400 fbw    2.000 MHz nfreq 256 nsam 1048576 npoint 214 integ    38 sigma    0.286 bsw 0
Spectrum 
 462.468  459.264  457.413  455.946  454.604  453.150  455.296  453.383  455.049  455.377  454.856  456.832  457.275  456.760  457.400  456.914  457.074  457.767  457.464  456.354  457.150  456.779  456.641  455.740  455.118  455.253  455.475  455.193  453.484  454.955  455.051  454.661  455.286  453.289  453.190  452.974  455.812  454.582  454.125  452.390  454.626  454.998  453.689  453.469  454.936  455.200  456.429  454.485  455.916  455.630  455.242  455.756  455.893  456.108  457.380  457.129  455.823  454.960  456.309  454.736  456.368  456.735  455.880  453.394  455.245  454.668  454.833  455.644  455.269  455.476  455.480  457.569  455.537  452.163  456.141  454.666  455.011  455.765  455.035  454.121  455.029  456.222  456.708  455.998  456.489  457.198  456.926  456.639  456.802  457.308  455.964  455.734  457.796  456.884  456.073  456.812  457.329  456.481  456.645  454.732  455.018  455.127  454.115  454.591  454.198  455.689  455.768  453.803  453.613  455.415  453.826  455.185  454.471  454.250  453.459  454.213  454.814  455.004  455.105  456.951  455.184  455.563  457.288  457.192  456.025  457.602  456.112  456.200  457.436  457.508  455.787  456.325  456.232  456.397  456.188  455.387  454.269  455.216  453.700  455.326  455.327  454.905  454.082  454.651  454.212  453.732  454.809  453.623  454.922  461.395  457.683  455.388  456.645  455.571  456.862  456.359  458.040  456.717  458.235  458.404  457.026  457.967  457.857  456.580  456.522  457.985  456.352  456.571  455.363  455.025  455.156  454.768  455.291  453.902  453.870  453.323  454.898  453.977  454.603  456.740  455.189  457.127  458.901  458.728  458.583  458.874  458.575  458.000  454.863  454.160  457.134  456.058  449.141  445.506  442.953  440.540  439.472  441.635  611.829  437.636  435.987  438.980  442.966  445.616  449.337  454.830  459.115  460.515  461.565  458.998  456.298  453.317  451.838  462.888 
DATE 2014:084:19:20:01 obsn  17 az 124 el 28 freq_MHz   868.0000 Tsys 171.000 Tant 281.110 vlsr  -34.94 glat 41.261 glon  2.055 source S6 
Fstart  866.997 fstop  869.003 spacing 0.009375 bw    2.400 fbw    2.000 MHz nfreq 256 nsam 1048576 npoint 214 integ    40 sigma    0.279 bsw 0
Spectrum 
 462.251  459.143  457.175  455.790  454.425  452.838  455.226  453.408  454.870  455.012  454.928  456.944  457.287  456.562  457.180  456.493  457.075  457.545  457.343  455.991  456.979  456.548  456.364  455.746  454.777  454.897  455.173  454.907  453.039  454.740  454.523  454.427  454.887  452.880  452.998  452.748  455.698  453.988  453.711  452.414  454.387  454.540  453.543  453.563  454.609  454.833  455.980  454.313  455.558  455.556  455.196  455.256  455.566  455.895  456.816  456.868  455.744  455.040  456.123  454.385  456.141  456.428  455.475  453.141  454.875  454.385  454.520  454.990  455.096  454.979  455.182  457.305  454.935  452.286  455.883  454.384  454.752  455.289  454.724  453.780  454.948  456.290  456.351  455.716  456.526  456.936  456.758  456.464  456.501  456.984  455.790  455.673  457.403  456.293  455.653  456.781  456.701  456.089  456.515  454.446  454.461  454.417  453.837  454.196  453.848  455.695  455.508  453.864  453.330  455.408  453.696  455.252  454.025  454.292  453.128  453.695  454.322  454.481  455.064  456.618  454.677  455.350  456.811  456.861  456.056  457.267  455.877  455.749  457.097  457.122  455.503  456.035  456.071  456.303  456.044  454.996  454.076  455.148  453.425  454.869  454.729  454.755  453.808  454.514  453.805  453.460  454.461  453.283  454.668  460.871  457.374  455.414  456.419  455.268  456.419  455.946  457.816  456.397  457.835  458.091  456.606  457.528  457.574  456.519  456.163  457.478  455.842  456.399  455.009  454.680  454.587  454.429  455.009  453.841  453.589  452.945  454.748  453.680  454.455  456.476  454.766  456.936  458.764  458.485  458.318  458.731  458.519  457.842  454.422  453.988  457.039  455.739  448.782  445.154  442.686  440.308  439.167  441.354  611.294  437.348  435.898  438.819  442.382  445.458  449.036  454.283  458.549  460.244  461.362  458.729  456.220  453.073  451.406  462.482 
